BioWare Version 5.3.0.7 Export
Device:	4827095 9260AA6
Samples (#):	4000
Rate (Hz):	1000.000000
Contact period start (sample #):	0
Contact period end (sample #):	3999
Contact period start time (s):	0.000000
Contact period end time (s):	3.999000
First sample time (s):	0.000000
Normalized force (N):	2.549780
Normalized length (m):	1.000000
File Information
Date	May 25, 2017  16:07:29
Name	
ID	
Classification	
Description	
abs time (s)	Fz
	N
0.000000	767.465595
0.001000	768.740507
0.002000	768.894931
0.003000	767.786833
0.004000	768.259993
0.005000	767.783321
0.006000	768.901292
0.007000	768.419270
0.008000	769.537241
0.009000	769.224037
0.010000	770.174697
0.011000	770.655212
0.012000	769.060569
0.013000	771.134053
0.014000	770.334140
0.015000	771.133722
0.016000	770.655543
0.017000	772.087893
0.018000	772.248678
0.019000	770.964903
0.020000	772.083040
0.021000	771.921079
0.022000	772.247336
0.023000	771.923763
0.024000	772.559711
0.025000	772.566404
0.026000	771.606534
0.027000	773.037211
0.028000	771.287814
0.029000	771.926777
0.030000	772.402770
0.031000	773.199338
0.032000	771.283623
0.033000	771.132049
0.034000	771.290150
0.035000	772.565228
0.036000	770.811308
0.037000	770.812981
0.038000	771.608886
0.039000	771.131039
0.040000	770.014741
0.041000	769.533894
0.042000	770.171019
0.043000	769.696352
0.044000	769.699698
0.045000	768.260158
0.046000	768.895941
0.047000	768.582059
0.048000	768.904141
0.049000	767.152060
0.050000	768.585918
0.051000	767.629063
0.052000	766.835345
0.053000	766.193035
0.054000	766.353323
0.055000	765.879666
0.056000	766.040451
0.057000	766.351815
0.058000	766.039953
0.059000	765.718550
0.060000	764.923656
0.061000	765.083777
0.062000	765.397146
0.063000	763.967811
0.064000	764.766217
0.065000	764.766051
0.066000	765.402166
0.067000	765.241713
0.068000	764.921485
0.069000	766.992286
0.070000	765.088962
0.071000	764.449833
0.072000	764.130947
0.073000	765.403507
0.074000	764.765720
0.075000	765.080431
0.076000	766.839701
0.077000	764.921485
0.078000	765.882183
0.079000	766.037949
0.080000	766.833340
0.081000	766.038114
0.082000	765.880842
0.083000	765.081094
0.084000	765.400658
0.085000	767.154578
0.086000	765.402166
0.087000	766.841374
0.088000	768.279076
0.089000	767.635259
0.090000	768.114779
0.091000	767.954657
0.092000	767.317201
0.093000	767.638108
0.094000	769.070292
0.095000	767.947799
0.096000	768.436514
0.097000	768.427983
0.098000	767.953481
0.099000	768.908497
0.100000	769.553988
0.101000	768.431992
0.102000	768.595294
0.103000	769.395042
0.104000	770.819855
0.105000	769.867191
0.106000	769.705562
0.107000	770.504813
0.108000	770.352394
0.109000	770.502295
0.110000	770.029483
0.111000	770.183244
0.112000	771.142269
0.113000	771.144605
0.114000	771.464169
0.115000	772.267098
0.116000	772.258898
0.117000	772.254210
0.118000	772.743272
0.119000	772.744432
0.120000	773.062489
0.121000	772.101625
0.122000	773.379552
0.123000	772.577965
0.124000	774.013165
0.125000	774.334387
0.126000	773.371850
0.127000	774.173271
0.128000	774.498352
0.129000	775.610972
0.130000	774.812731
0.131000	775.448846
0.132000	774.973682
0.133000	775.771093
0.134000	775.610806
0.135000	776.238886
0.136000	775.291242
0.137000	775.289071
0.138000	776.880699
0.139000	776.730616
0.140000	776.409212
0.141000	777.366399
0.142000	776.404027
0.143000	777.039810
0.144000	776.092165
0.145000	775.931712
0.146000	776.727435
0.147000	775.931712
0.148000	776.411217
0.149000	777.676588
0.150000	776.730284
0.151000	776.567827
0.152000	776.406198
0.153000	775.771425
0.154000	775.444489
0.155000	774.655127
0.156000	776.561797
0.157000	777.202599
0.158000	776.086965
0.159000	777.042312
0.160000	777.201092
0.161000	775.763557
0.162000	776.404690
0.163000	775.288227
0.164000	776.246423
0.165000	775.451016
0.166000	775.447504
0.167000	775.771756
0.168000	776.085292
0.169000	776.242398
0.170000	774.492654
0.171000	775.450850
0.172000	776.087130
0.173000	775.763557
0.174000	775.604445
0.175000	775.610127
0.176000	775.768742
0.177000	777.361711
0.178000	775.770249
0.179000	776.729274
0.180000	777.198740
0.181000	777.525676
0.182000	777.993800
0.183000	777.206609
0.184000	777.994645
0.185000	777.841381
0.186000	778.473818
0.187000	779.434682
0.188000	778.315535
0.189000	779.271893
0.190000	778.477164
0.191000	779.747720
0.192000	779.587267
0.193000	780.070631
0.194000	780.389698
0.195000	780.704575
0.196000	781.175382
0.197000	780.545795
0.198000	782.937502
0.199000	781.823374
0.200000	783.408309
0.201000	781.821701
0.202000	782.938165
0.203000	784.684216
0.204000	784.685060
0.205000	783.406968
0.206000	783.728205
0.207000	784.529626
0.208000	784.369008
0.209000	784.367500
0.210000	784.526777
0.211000	785.004956
0.212000	784.845000
0.213000	785.480618
0.214000	784.844835
0.215000	784.680870
0.216000	785.325184
0.217000	785.479110
0.218000	785.638553
0.219000	785.638553
0.220000	785.480949
0.221000	785.963137
0.222000	786.280697
0.223000	784.838474
0.224000	785.797167
0.225000	786.435121
0.226000	786.432106
0.227000	786.749997
0.228000	786.437125
0.229000	786.438301
0.230000	785.959791
0.231000	786.434789
0.232000	786.434955
0.233000	786.112707
0.234000	785.954771
0.235000	786.592890
0.236000	787.231854
0.237000	787.075923
0.238000	787.075426
0.239000	785.800514
0.240000	785.318657
0.241000	785.316984
0.242000	785.640739
0.243000	785.160390
0.244000	785.165575
0.245000	784.361305
0.246000	785.320330
0.247000	784.364486
0.248000	784.685392
0.249000	784.521924
0.250000	784.525436
0.251000	785.321838
0.252000	784.364817
0.253000	785.156365
0.254000	783.728371
0.255000	785.164565
0.256000	784.048433
0.257000	784.684382
0.258000	784.205208
0.259000	783.571430
0.260000	784.521758
0.261000	783.731717
0.262000	783.415168
0.263000	784.047604
0.264000	783.724859
0.265000	782.934818
0.266000	781.823209
0.267000	783.255890
0.268000	782.775210
0.269000	782.774200
0.270000	782.936492
0.271000	782.301719
0.272000	782.139427
0.273000	782.298704
0.274000	780.862676
0.275000	781.338503
0.276000	781.500132
0.277000	779.905158
0.278000	781.505483
0.279000	780.867364
0.280000	782.137919
0.281000	780.700881
0.282000	779.753236
0.283000	780.544453
0.284000	781.342362
0.285000	780.867695
0.286000	781.186763
0.287000	781.183748
0.288000	781.500463
0.289000	780.698379
0.290000	780.867695
0.291000	781.025631
0.292000	782.617093
0.293000	781.182241
0.294000	781.498956
0.295000	782.616761
0.296000	781.820360
0.297000	782.613415
0.298000	782.452796
0.299000	782.770688
0.300000	781.660072
0.301000	781.179889
0.302000	782.295358
0.303000	781.020777
0.304000	781.658399
0.305000	781.333981
0.306000	782.938330
0.307000	782.777712
0.308000	781.502800
0.309000	781.181893
0.310000	781.658233
0.311000	782.448771
0.312000	782.136909
0.313000	783.568415
0.314000	781.656394
0.315000	781.818852
0.316000	782.935647
0.317000	781.016934
0.318000	782.295524
0.319000	781.501292
0.320000	782.294513
0.321000	782.458147
0.322000	782.454801
0.323000	781.976290
0.324000	780.863173
0.325000	781.020446
0.326000	782.297860
0.327000	781.974617
0.328000	782.292675
0.329000	782.620439
0.330000	782.452962
0.331000	782.773521
0.332000	782.138914
0.333000	782.453128
0.334000	781.502634
0.335000	782.454635
0.336000	782.777877
0.337000	781.979139
0.338000	781.655219
0.339000	782.295855
0.340000	782.453293
0.341000	781.657057
0.342000	782.294182
0.343000	783.574279
0.344000	783.246846
0.345000	783.727195
0.346000	784.048433
0.347000	781.336996
0.348000	782.943184
0.349000	783.256553
0.350000	782.933974
0.351000	782.772526
0.352000	784.204364
0.353000	784.521758
0.354000	782.772858
0.355000	782.935813
0.356000	782.928623
0.357000	783.406123
0.358000	784.844835
0.359000	783.413660
0.360000	784.205706
0.361000	783.886985
0.362000	782.619097
0.363000	782.772526
0.364000	783.728371
0.365000	784.366324
0.366000	783.890995
0.367000	783.248519
0.368000	782.454966
0.369000	784.844835
0.370000	784.046926
0.371000	782.776370
0.372000	784.047936
0.373000	783.728371
0.374000	782.611576
0.375000	783.090418
0.376000	781.338006
0.377000	782.139427
0.378000	782.141100
0.379000	781.981657
0.380000	781.180236
0.381000	781.497614
0.382000	780.226562
0.383000	781.024636
0.384000	781.023295
0.385000	781.182406
0.386000	780.226064
0.387000	779.275571
0.388000	780.708418
0.389000	777.995971
0.390000	776.880004
0.391000	777.833679
0.392000	778.949479
0.393000	777.522993
0.394000	777.841216
0.395000	776.405685
0.396000	775.132959
0.397000	776.567645
0.398000	775.926346
0.399000	776.244569
0.400000	775.452523
0.401000	775.932541
0.402000	774.493830
0.403000	774.491494
0.404000	773.701784
0.405000	774.340416
0.406000	774.970667
0.407000	772.581975
0.408000	773.697941
0.409000	773.855711
0.410000	773.860564
0.411000	772.894515
0.412000	774.181139
0.413000	773.223621
0.414000	773.225294
0.415000	773.379055
0.416000	773.701287
0.417000	772.428893
0.418000	773.381557
0.419000	771.627637
0.420000	773.386245
0.421000	773.704633
0.422000	773.064841
0.423000	772.900876
0.424000	772.903047
0.425000	773.542010
0.426000	773.380215
0.427000	772.750130
0.428000	773.855379
0.429000	774.338743
0.430000	775.300949
0.431000	773.848687
0.432000	774.333724
0.433000	774.494177
0.434000	775.450353
0.435000	774.970004
0.436000	773.855711
0.437000	775.447504
0.438000	773.532468
0.439000	775.446841
0.440000	775.926014
0.441000	775.286885
0.442000	776.563305
0.443000	776.087809
0.444000	776.086633
0.445000	776.243740
0.446000	775.129281
0.447000	776.250764
0.448000	776.720577
0.449000	776.083287
0.450000	778.151752
0.451000	776.878181
0.452000	777.357189
0.453000	777.839542
0.454000	777.834026
0.455000	777.357355
0.456000	777.357520
0.457000	777.673904
0.458000	777.514793
0.459000	778.948816
0.460000	778.629418
0.461000	779.267205
0.462000	778.151404
0.463000	777.673739
0.464000	776.880683
0.465000	777.354671
0.466000	778.306838
0.467000	778.308843
0.468000	777.833182
0.469000	776.872649
0.470000	779.104416
0.471000	779.423302
0.472000	779.257829
0.473000	778.460930
0.474000	780.220201
0.475000	779.423965
0.476000	779.099215
0.477000	779.423633
0.478000	779.098884
0.479000	779.110098
0.480000	779.734832
0.481000	781.176045
0.482000	780.530058
0.483000	780.220698
0.484000	780.533901
0.485000	780.854476
0.486000	779.574711
0.487000	780.053387
0.488000	780.212664
0.489000	781.171026
0.490000	781.174538
0.491000	782.127036
0.492000	779.415765
0.493000	780.527375
0.494000	781.644004
0.495000	780.051713
0.496000	781.322103
0.497000	779.728968
0.498000	780.846939
0.499000	781.487576
0.500000	781.002870
0.501000	779.569525
0.502000	780.050206
0.503000	779.251966
0.504000	778.617690
0.505000	778.454569
0.506000	778.770275
0.507000	778.294779
0.508000	778.294613
0.509000	776.863936
0.510000	776.865112
0.511000	777.178316
0.512000	776.702986
0.513000	777.345296
0.514000	777.663353
0.515000	775.269807
0.516000	774.950408
0.517000	774.791628
0.518000	775.424909
0.519000	774.951915
0.520000	774.632351
0.521000	774.469562
0.522000	773.199669
0.523000	774.474415
0.524000	773.042231
0.525000	772.237298
0.526000	773.196323
0.527000	771.290150
0.528000	771.766656
0.529000	772.402604
0.530000	772.400766
0.531000	771.125356
0.532000	771.448599
0.533000	770.171516
0.534000	771.922752
0.535000	771.604364
0.536000	770.807796
0.537000	771.446594
0.538000	769.854122
0.539000	770.166828
0.540000	769.855464
0.541000	770.807631
0.542000	770.968581
0.543000	770.486393
0.544000	770.804782
0.545000	770.640651
0.546000	770.966908
0.547000	771.922587
0.548000	771.922587
0.549000	771.917899
0.550000	771.437218
0.551000	770.644163
0.552000	770.799762
0.553000	771.757446
0.554000	771.595485
0.555000	773.351922
0.556000	771.755938
0.557000	773.188454
0.558000	771.756949
0.559000	772.715129
0.560000	773.507853
0.561000	772.234780
0.562000	772.393726
0.563000	772.868558
0.564000	773.509692
0.565000	773.667130
0.566000	772.870563
0.567000	772.074493
0.568000	773.822399
0.569000	773.511034
0.570000	773.829422
0.571000	773.185440
0.572000	773.511531
0.573000	772.070815
0.574000	773.506677
0.575000	772.712115
0.576000	772.393394
0.577000	772.713622
0.578000	773.510189
0.579000	774.306094
0.580000	771.907016
0.581000	772.233107
0.582000	772.387696
0.583000	772.549491
0.584000	772.864865
0.585000	772.227078
0.586000	773.190293
0.587000	773.026660
0.588000	772.871060
0.589000	773.346390
0.590000	773.341371
0.591000	771.587617
0.592000	772.543959
0.593000	772.069308
0.594000	773.815359
0.595000	772.228253
0.596000	771.746894
0.597000	773.024987
0.598000	771.910693
0.599000	773.342712
0.600000	771.271067
0.601000	771.111790
0.602000	772.228088
0.603000	772.067469
0.604000	770.952678
0.605000	771.272409
0.606000	771.105429
0.607000	770.312373
0.608000	769.675928
0.609000	769.831527
0.610000	769.836712
0.611000	769.676093
0.612000	770.477183
0.613000	769.997497
0.614000	769.358202
0.615000	769.513470
0.616000	768.881033
0.617000	768.878019
0.618000	768.557957
0.619000	769.515309
0.620000	770.158116
0.621000	768.879526
0.622000	768.081120
0.623000	767.926696
0.624000	765.846851
0.625000	766.808559
0.626000	767.761224
0.627000	766.010650
0.628000	767.764073
0.629000	766.966163
0.630000	766.648603
0.631000	766.966495
0.632000	767.764901
0.633000	767.446678
0.634000	767.926862
0.635000	767.602278
0.636000	766.644594
0.637000	766.968665
0.638000	767.436971
0.639000	766.327200
0.640000	767.281206
0.641000	766.004455
0.642000	766.166913
0.643000	765.850363
0.644000	766.801022
0.645000	766.487487
0.646000	767.121763
0.647000	767.440317
0.648000	766.807715
0.649000	767.445171
0.650000	768.238889
0.651000	768.879692
0.652000	768.718576
0.653000	768.074593
0.654000	768.078105
0.655000	768.712546
0.656000	769.990804
0.657000	769.191388
0.658000	767.912632
0.659000	770.314212
0.660000	770.938781
0.661000	769.826492
0.662000	770.145228
0.663000	772.373633
0.664000	772.057414
0.665000	772.215516
0.666000	772.848963
0.667000	772.219541
0.668000	771.898303
0.669000	773.488589
0.670000	772.850801
0.671000	773.967099
0.672000	773.804973
0.673000	773.011752
0.674000	774.438073
0.675000	774.282473
0.676000	775.237986
0.677000	776.032881
0.678000	776.356123
0.679000	774.605218
0.680000	775.880296
0.681000	776.032715
0.682000	775.396932
0.683000	776.189822
0.684000	774.921934
0.685000	775.716165
0.686000	776.030876
0.687000	776.830624
0.688000	776.673683
0.689000	776.357465
0.690000	777.149344
0.691000	776.360479
0.692000	775.556541
0.693000	776.834302
0.694000	776.830956
0.695000	774.922612
0.696000	775.882135
0.697000	777.155374
0.698000	777.792830
0.699000	776.038744
0.700000	775.719843
0.701000	775.398274
0.702000	775.728556
0.703000	776.034222
0.704000	774.448790
0.705000	774.919266
0.706000	774.602551
0.707000	773.970114
0.708000	774.125548
0.709000	774.290176
0.710000	774.286332
0.711000	774.286167
0.712000	773.809495
0.713000	773.329146
0.714000	773.650881
0.715000	773.175054
0.716000	773.176395
0.717000	773.495960
0.718000	773.492780
0.719000	773.014767
0.720000	773.334165
0.721000	772.375306
0.722000	771.897972
0.723000	772.535759
0.724000	772.065614
0.725000	773.169869
0.726000	773.014435
0.727000	772.058756
0.728000	772.699890
0.729000	771.416281
0.730000	772.371794
0.731000	772.214687
0.732000	772.534252
0.733000	773.487926
0.734000	773.171873
0.735000	772.530905
0.736000	774.131064
0.737000	774.598526
0.738000	773.809495
0.739000	774.760320
0.740000	775.403293
0.741000	776.514903
0.742000	775.713482
0.743000	774.918588
0.744000	775.547844
0.745000	775.874101
0.746000	775.556706
0.747000	776.828438
0.748000	776.672838
0.749000	777.782444
0.750000	777.786966
0.751000	778.420728
0.752000	778.261286
0.753000	777.309119
0.754000	777.628683
0.755000	778.737113
0.756000	778.578167
0.757000	777.618810
0.758000	779.055004
0.759000	779.062028
0.760000	779.851406
0.761000	779.376573
0.762000	780.491364
0.763000	779.855083
0.764000	778.737113
0.765000	778.896224
0.766000	778.894385
0.767000	778.737278
0.768000	778.579840
0.769000	779.375563
0.770000	780.012853
0.771000	780.651485
0.772000	780.649978
0.773000	780.489856
0.774000	779.690274
0.775000	780.327398
0.776000	779.694465
0.777000	781.445535
0.778000	781.121117
0.779000	781.283409
0.780000	781.604647
0.781000	782.079976
0.782000	781.918860
0.783000	781.283575
0.784000	781.763592
0.785000	781.125805
0.786000	782.238756
0.787000	782.556814
0.788000	782.240927
0.789000	782.713573
0.790000	782.875534
0.791000	783.034479
0.792000	782.869007
0.793000	782.556135
0.794000	783.190576
0.795000	783.827866
0.796000	783.348512
0.797000	783.664399
0.798000	783.667579
0.799000	782.871343
0.800000	783.504111
0.801000	783.824007
0.802000	783.982456
0.803000	782.545252
0.804000	784.137542
0.805000	783.027274
0.806000	784.131181
0.807000	783.662047
0.808000	783.503598
0.809000	781.747011
0.810000	781.588728
0.811000	783.022752
0.812000	782.865645
0.813000	783.342648
0.814000	782.864303
0.815000	782.546246
0.816000	782.867152
0.817000	783.022918
0.818000	782.223004
0.819000	781.112388
0.820000	782.065731
0.821000	780.955282
0.822000	781.274017
0.823000	780.954950
0.824000	779.839331
0.825000	780.952946
0.826000	779.354626
0.827000	777.926797
0.828000	779.993755
0.829000	778.883486
0.830000	779.518591
0.831000	778.403634
0.832000	778.085577
0.833000	778.242353
0.834000	778.087748
0.835000	778.087085
0.836000	775.374140
0.837000	777.290351
0.838000	775.696554
0.839000	775.372135
0.840000	775.852650
0.841000	776.969445
0.842000	774.736187
0.843000	775.370794
0.844000	775.534759
0.845000	774.423149
0.846000	774.259018
0.847000	772.666215
0.848000	774.576910
0.849000	772.670405
0.850000	773.304847
0.851000	773.309866
0.852000	772.991974
0.853000	772.982433
0.854000	772.987287
0.855000	773.468812
0.856000	771.549585
0.857000	771.718073
0.858000	772.192061
0.859000	771.387128
0.860000	771.233201
0.861000	772.033281
0.862000	771.395162
0.863000	772.665717
0.864000	772.189890
0.865000	772.029769
0.866000	772.029603
0.867000	771.555781
0.868000	771.234543
0.869000	772.352514
0.870000	772.032452
0.871000	772.832697
0.872000	771.234874
0.873000	771.078612
0.874000	771.557288
0.875000	771.555615
0.876000	772.031276
0.877000	770.114568
0.878000	772.029603
0.879000	771.234874
0.880000	773.307530
0.881000	772.829683
0.882000	770.600102
0.883000	771.236382
0.884000	772.035964
0.885000	773.305178
0.886000	772.668566
0.887000	771.714726
0.888000	771.875677
0.889000	772.190222
0.890000	773.144062
0.891000	772.034788
0.892000	773.306685
0.893000	772.508611
0.894000	771.233036
0.895000	773.786703
0.896000	773.629099
0.897000	771.864131
0.898000	772.190553
0.899000	772.832366
0.900000	772.667225
0.901000	771.553942
0.902000	772.506772
0.903000	774.739202
0.904000	773.464455
0.905000	773.307183
0.906000	772.823156
0.907000	773.300656
0.908000	772.983775
0.909000	774.103584
0.910000	775.218043
0.911000	773.623567
0.912000	773.945815
0.913000	775.062941
0.914000	774.259350
0.915000	774.898313
0.916000	776.652895
0.917000	775.057756
0.918000	774.895795
0.919000	775.221224
0.920000	775.218540
0.921000	775.377320
0.922000	776.013269
0.923000	776.970787
0.924000	776.331161
0.925000	776.174219
0.926000	776.336346
0.927000	776.497296
0.928000	777.131903
0.929000	776.651222
0.930000	777.929812
0.931000	777.129898
0.932000	777.447458
0.933000	777.609750
0.934000	777.929812
0.935000	776.968948
0.936000	778.402127
0.937000	777.606736
0.938000	777.131406
0.939000	778.725038
0.940000	778.086587
0.941000	777.447956
0.942000	777.447956
0.943000	776.969445
0.944000	778.082563
0.945000	776.812173
0.946000	777.284156
0.947000	778.242850
0.948000	777.924461
0.949000	778.723696
0.950000	779.042432
0.951000	778.882145
0.952000	778.247869
0.953000	777.287502
0.954000	778.559731
0.955000	777.286161
0.956000	779.040925
0.957000	777.127547
0.958000	776.811841
0.959000	777.926632
0.960000	777.926963
0.961000	776.972791
0.962000	776.648705
0.963000	776.815685
0.964000	777.127049
0.965000	776.333331
0.966000	776.167527
0.967000	776.011927
0.968000	777.132069
0.969000	776.012425
0.970000	775.535256
0.971000	775.695875
0.972000	775.059761
0.973000	775.377652
0.974000	775.534925
0.975000	774.586270
0.976000	773.784351
0.977000	775.224057
0.978000	773.948482
0.979000	774.423646
0.980000	773.784186
0.981000	774.109101
0.982000	773.309187
0.983000	772.668219
0.984000	772.513796
0.985000	772.518649
0.986000	772.669229
0.987000	772.518815
0.988000	772.840218
0.989000	772.834702
0.990000	770.760208
0.991000	771.874335
0.992000	773.149744
0.993000	772.516976
0.994000	772.992472
0.995000	772.037637
0.996000	771.719911
0.997000	771.558961
0.998000	772.521333
0.999000	771.559458
1.000000	770.606628
1.001000	770.282210
1.002000	770.452702
1.003000	771.247431
1.004000	772.679947
1.005000	770.768589
1.006000	769.488326
1.007000	770.134313
1.008000	770.293093
1.009000	770.609809
1.010000	769.494687
1.011000	769.337912
1.012000	771.246768
1.013000	769.971690
1.014000	770.769599
1.015000	771.087491
1.016000	770.136152
1.017000	769.971856
1.018000	769.657145
1.019000	770.139001
1.020000	769.659994
1.021000	771.095856
1.022000	770.299123
1.023000	769.500717
1.024000	772.049862
1.025000	770.138670
1.026000	771.728293
1.027000	771.731805
1.028000	771.418767
1.029000	771.576039
1.030000	771.096353
1.031000	773.010063
1.032000	772.213827
1.033000	772.053540
1.034000	771.579220
1.035000	772.375953
1.036000	772.696694
1.037000	773.652538
1.038000	770.788350
1.039000	773.014585
1.040000	771.590435
1.041000	771.582069
1.042000	771.745371
1.043000	771.114607
1.044000	773.337662
1.045000	770.312689
1.046000	770.949135
1.047000	770.470459
1.048000	771.268534
1.049000	770.948472
1.050000	772.069623
1.051000	769.997481
1.052000	771.591113
1.053000	771.435016
1.054000	770.794214
1.055000	771.277412
1.056000	771.428324
1.057000	772.075984
1.058000	770.954336
1.059000	771.915034
1.060000	771.434685
1.061000	772.236438
1.062000	771.915200
1.063000	772.233257
1.064000	772.706914
1.065000	771.755923
1.066000	772.552656
1.067000	772.713606
1.068000	772.237779
1.069000	771.918215
1.070000	771.436358
1.071000	772.872386
1.072000	772.234433
1.073000	772.719138
1.074000	773.665110
1.075000	773.029162
1.076000	773.034678
1.077000	772.872386
1.078000	773.507838
1.079000	772.552159
1.080000	773.993538
1.081000	772.714285
1.082000	774.151986
1.083000	773.665773
1.084000	773.347550
1.085000	774.632335
1.086000	774.628145
1.087000	774.628989
1.088000	773.833929
1.089000	775.737253
1.090000	774.786759
1.091000	774.626471
1.092000	774.150313
1.093000	776.060826
1.094000	775.578970
1.095000	775.585165
1.096000	775.585165
1.097000	776.061837
1.098000	776.063841
1.099000	776.702804
1.100000	777.178797
1.101000	776.543180
1.102000	775.268118
1.103000	776.861916
1.104000	776.228982
1.105000	778.460402
1.106000	777.501377
1.107000	776.383240
1.108000	777.501045
1.109000	777.660819
1.110000	777.026212
1.111000	777.024208
1.112000	778.298441
1.113000	777.504060
1.114000	777.506562
1.115000	777.659991
1.116000	779.256969
1.117000	778.942258
1.118000	777.341089
1.119000	777.344270
1.120000	777.504391
1.121000	777.031398
1.122000	778.789176
1.123000	777.348792
1.124000	776.551727
1.125000	776.869950
1.126000	777.827302
1.127000	776.548878
1.128000	777.189349
1.129000	775.756998
1.130000	775.911935
1.131000	775.761521
1.132000	776.551396
1.133000	775.600902
1.134000	776.714019
1.135000	775.600405
1.136000	776.238358
1.137000	775.436771
1.138000	776.713522
1.139000	776.718375
1.140000	776.082593
1.141000	777.677401
1.142000	777.198725
1.143000	775.123236
1.144000	775.761023
1.145000	775.913774
1.146000	776.874306
1.147000	776.242548
1.148000	776.397138
1.149000	777.516616
1.150000	778.469114
1.151000	777.357505
1.152000	778.313183
1.153000	777.515953
1.154000	777.349802
1.155000	776.556415
1.156000	777.832669
1.157000	779.427974
1.158000	778.000146
1.159000	778.154751
1.160000	778.478324
1.161000	779.109751
1.162000	777.836015
1.163000	779.114770
1.164000	779.422457
1.165000	778.475310
1.166000	778.150892
1.167000	778.634090
1.168000	778.476817
1.169000	777.200066
1.170000	780.867017
1.171000	779.114605
1.172000	780.387843
1.173000	778.953488
1.174000	779.266692
1.175000	779.116112
1.176000	779.270038
1.177000	779.905987
1.178000	778.632582
1.179000	780.061586
1.180000	780.387843
1.181000	779.748714
1.182000	779.907163
1.183000	779.909333
1.184000	780.063757
1.185000	780.713935
1.186000	780.548959
1.187000	779.747207
1.188000	779.745700
1.189000	780.866354
1.190000	780.543940
1.191000	780.870031
1.192000	780.863339
1.193000	779.911006
1.194000	781.504638
1.195000	781.020612
1.196000	781.025449
1.197000	781.659725
1.198000	782.454122
1.199000	781.817510
1.200000	781.816832
1.201000	781.656892
1.202000	782.298688
1.203000	781.651194
1.204000	781.975943
1.205000	783.251518
1.206000	782.295342
1.207000	781.816998
1.208000	781.975943
1.209000	783.092241
1.210000	781.656379
1.211000	782.453112
1.212000	781.814149
1.213000	782.444912
1.214000	781.658052
1.215000	782.608877
1.216000	781.338156
1.217000	781.021606
1.218000	781.017084
1.219000	781.178034
1.220000	781.978279
1.221000	781.331629
1.222000	780.542086
1.223000	779.582066
1.224000	778.946946
1.225000	779.266511
1.226000	779.743513
1.227000	778.783478
1.228000	778.467939
1.229000	778.785664
1.230000	778.624035
1.231000	777.033584
1.232000	779.582895
1.233000	777.346109
1.234000	778.628723
1.235000	777.666352
1.236000	777.504888
1.237000	777.185158
1.238000	777.191851
1.239000	776.388425
1.240000	777.185655
1.241000	777.188670
1.242000	776.710326
1.243000	777.509245
1.244000	777.505054
1.245000	777.028217
1.246000	776.223284
1.247000	776.867267
1.248000	776.230308
1.249000	776.710326
1.250000	776.872783
1.251000	776.391258
1.252000	775.746944
1.253000	776.387581
1.254000	776.386073
1.255000	776.231815
1.256000	776.703799
1.257000	776.229479
1.258000	776.226796
1.259000	776.387415
1.260000	776.705638
1.261000	776.549541
1.262000	776.228138
1.263000	778.459060
1.264000	777.503547
1.265000	776.872783
1.266000	776.069192
1.267000	776.390430
1.268000	778.776951
1.269000	775.271961
1.270000	776.711833
1.271000	775.595369
1.272000	775.755657
1.273000	776.860906
1.274000	775.596711
1.275000	777.505899
1.276000	776.228816
1.277000	775.753818
1.278000	775.757330
1.279000	774.002913
1.280000	775.596214
1.281000	774.319297
1.282000	774.484935
1.283000	773.522896
1.284000	773.687026
1.285000	772.725665
1.286000	772.576427
1.287000	772.732689
1.288000	771.935956
1.289000	772.091887
1.290000	770.341827
1.291000	771.291476
1.292000	772.253019
1.293000	770.975258
1.294000	772.091058
1.295000	771.135545
1.296000	769.701024
1.297000	771.131702
1.298000	770.655362
1.299000	770.176686
1.300000	770.974760
1.301000	770.660547
1.302000	770.978107
1.303000	771.776513
1.304000	770.496416
1.305000	771.296495
1.306000	770.498089
1.307000	770.817322
1.308000	770.334124
1.309000	771.778020
1.310000	771.611206
1.311000	771.453602
1.312000	771.126169
1.313000	770.809785
1.314000	773.044385
1.315000	773.837441
1.316000	772.886781
1.317000	772.400734
1.318000	773.047069
1.319000	774.315107
1.320000	773.677485
1.321000	772.721475
1.322000	774.155995
1.323000	773.518705
1.324000	774.316614
1.325000	774.954236
1.326000	774.629818
1.327000	776.064504
1.328000	774.786246
1.329000	775.264922
1.330000	775.268434
1.331000	774.944016
1.332000	776.060479
1.333000	775.100957
1.334000	776.376697
1.335000	775.739076
1.336000	775.738744
1.337000	775.741246
1.338000	774.780051
1.339000	776.693247
1.340000	774.305218
1.341000	775.906387
1.342000	777.330025
1.343000	776.057796
1.344000	777.331201
1.345000	776.052942
1.346000	777.334381
1.347000	777.014651
1.348000	776.372838
1.349000	776.376019
1.350000	777.172918
1.351000	778.134460
1.352000	777.329859
1.353000	777.170747
1.354000	778.449337
1.355000	778.132787
1.356000	778.127934
1.357000	777.328352
1.358000	777.975680
1.359000	777.810208
1.360000	778.126261
1.361000	778.288553
1.362000	778.292230
1.363000	777.331532
1.364000	777.967481
1.365000	778.452518
1.366000	777.972666
1.367000	776.380707
1.368000	776.059303
1.369000	776.536472
1.370000	777.488970
1.371000	777.655784
1.372000	775.254536
1.373000	775.736392
1.374000	776.539984
1.375000	775.421847
1.376000	775.262404
1.377000	776.213064
1.378000	774.626787
1.379000	774.307057
1.380000	775.256043
1.381000	774.621436
1.382000	775.740417
1.383000	774.308233
1.384000	773.511831
1.385000	772.713756
1.386000	773.504807
1.387000	773.667431
1.388000	773.827884
1.389000	773.512841
1.390000	774.306228
1.391000	773.665592
1.392000	773.673460
1.393000	773.832903
1.394000	773.511334
1.395000	773.984991
1.396000	774.625958
1.397000	773.667431
1.398000	772.711420
1.399000	773.670777
1.400000	774.622447
1.401000	774.297018
1.402000	775.104137
1.403000	774.305052
1.404000	772.873712
1.405000	774.463667
1.406000	775.419677
1.407000	775.260565
1.408000	775.257551
1.409000	773.982307
1.410000	774.459642
1.411000	775.418004
1.412000	774.141419
1.413000	774.463832
1.414000	773.979127
1.415000	774.300530
1.416000	774.138238
1.417000	772.863839
1.418000	773.825035
1.419000	773.664582
1.420000	774.621934
1.421000	774.938152
1.422000	774.141584
1.423000	774.941830
1.424000	775.420174
1.425000	775.089395
1.426000	774.776191
1.427000	775.577612
1.428000	774.784060
1.429000	775.895504
1.430000	776.371331
1.431000	775.097429
1.432000	774.772514
1.433000	776.525257
1.434000	777.483951
1.435000	776.210381
1.436000	776.690398
1.437000	777.167235
1.438000	776.838129
1.439000	776.048586
1.440000	776.050093
1.441000	777.641721
1.442000	776.050590
1.443000	777.161703
1.444000	776.529101
1.445000	776.525589
1.446000	777.798828
1.447000	776.843977
1.448000	777.478253
1.449000	777.797652
1.450000	777.478253
1.451000	777.475073
1.452000	777.317966
1.453000	777.798646
1.454000	777.163211
1.455000	779.394796
1.456000	778.750150
1.457000	780.022710
1.458000	779.227650
1.459000	779.071719
1.460000	779.708000
1.461000	779.225977
1.462000	779.224636
1.463000	780.658991
1.464000	779.702980
1.465000	780.339426
1.466000	780.339095
1.467000	781.132813
1.468000	779.863599
1.469000	780.661161
1.470000	780.816760
1.471000	780.503391
1.472000	781.774278
1.473000	782.092004
1.474000	782.411734
1.475000	782.725104
1.476000	783.206794
1.477000	782.726279
1.478000	783.039649
1.479000	782.880372
1.480000	783.839562
1.481000	783.362394
1.482000	783.677602
1.483000	783.363222
1.484000	782.725269
1.485000	784.318073
1.486000	785.433858
1.487000	784.473159
1.488000	783.355520
1.489000	784.630432
1.490000	783.351842
1.491000	782.399509
1.492000	784.471486
1.493000	783.352008
1.494000	784.465788
1.495000	784.147731
1.496000	783.514466
1.497000	783.672070
1.498000	783.034945
1.499000	784.464115
1.500000	784.778660
1.501000	784.307174
1.502000	786.377477
1.503000	784.936762
1.504000	786.374463
1.505000	786.538428
1.506000	787.804130
1.507000	786.692686
1.508000	787.009235
1.509000	788.126875
1.510000	789.082885
1.511000	788.443590
1.512000	787.965246
1.513000	788.758633
1.514000	788.759130
1.515000	787.802275
1.516000	788.112977
1.517000	788.595497
1.518000	790.670322
1.519000	790.508527
1.520000	789.866218
1.521000	790.187290
1.522000	790.346898
1.523000	789.386200
1.524000	791.466377
1.525000	789.862027
1.526000	791.617454
1.527000	792.256915
1.528000	791.779912
1.529000	791.614274
1.530000	793.687079
1.531000	794.960815
1.532000	792.886834
1.533000	794.161399
1.534000	794.956624
1.535000	794.316319
1.536000	795.268486
1.537000	796.226004
1.538000	797.975236
1.539000	797.498233
1.540000	798.134845
1.541000	798.608501
1.542000	799.410254
1.543000	800.999198
1.544000	801.155295
1.545000	800.514658
1.546000	801.790399
1.547000	803.534611
1.548000	805.290535
1.549000	806.723714
1.550000	808.320527
1.551000	807.520100
1.552000	809.104870
1.553000	810.856106
1.554000	810.536376
1.555000	812.767795
1.556000	813.405914
1.557000	814.833743
1.558000	815.147278
1.559000	817.854027
1.560000	819.769726
1.561000	820.558259
1.562000	822.953644
1.563000	822.944268
1.564000	825.175025
1.565000	828.678176
1.566000	828.044729
1.567000	831.226145
1.568000	832.018009
1.569000	835.203103
1.570000	836.952500
1.571000	838.065949
1.572000	840.772699
1.573000	842.045425
1.574000	844.429097
1.575000	846.816614
1.576000	849.365262
1.577000	852.867734
1.578000	854.302587
1.579000	857.959996
1.580000	860.030962
1.581000	862.733355
1.582000	864.961594
1.583000	867.352291
1.584000	871.643644
1.585000	874.032502
1.586000	878.336396
1.587000	880.403006
1.588000	885.019274
1.589000	886.930798
1.590000	891.865455
1.591000	894.095367
1.592000	898.067984
1.593000	900.781924
1.594000	905.871170
1.595000	909.217049
1.596000	914.786644
1.597000	919.406424
1.598000	922.268095
1.599000	925.929513
1.600000	930.706566
1.601000	935.479926
1.602000	939.616508
1.603000	943.431687
1.604000	948.842171
1.605000	953.614536
1.606000	959.504872
1.607000	964.915687
1.608000	969.380697
1.609000	975.107731
1.610000	980.836107
1.611000	987.202104
1.612000	992.451969
1.613000	998.498568
1.614000	1005.196173
1.615000	1011.395356
1.616000	1016.014126
1.617000	1023.178695
1.618000	1030.977375
1.619000	1037.663599
1.620000	1043.709006
1.621000	1051.031693
1.622000	1058.037814
1.623000	1066.322358
1.624000	1072.841106
1.625000	1081.126827
1.626000	1088.283362
1.627000	1095.924603
1.628000	1103.089835
1.629000	1109.778909
1.630000	1119.657765
1.631000	1128.086363
1.632000	1135.889896
1.633000	1143.694257
1.634000	1152.292850
1.635000	1160.091861
1.636000	1169.013033
1.637000	1177.138135
1.638000	1185.416831
1.639000	1194.334989
1.640000	1202.933582
1.641000	1211.056679
1.642000	1221.253923
1.643000	1228.898510
1.644000	1237.980135
1.645000	1247.213848
1.646000	1254.218809
1.647000	1263.617481
1.648000	1273.024022
1.649000	1282.578806
1.650000	1289.587113
1.651000	1298.507125
1.652000	1307.105718
1.653000	1315.392283
1.654000	1325.753674
1.655000	1333.074687
1.656000	1342.480233
1.657000	1351.085534
1.658000	1360.008214
1.659000	1367.492016
1.660000	1377.854086
1.661000	1387.251598
1.662000	1393.621620
1.663000	1402.073839
1.664000	1410.996518
1.665000	1421.514850
1.666000	1429.641807
1.667000	1436.968352
1.668000	1446.060529
1.669000	1454.821927
1.670000	1464.224127
1.671000	1472.034368
1.672000	1479.526717
1.673000	1487.810615
1.674000	1497.847090
1.675000	1506.615859
1.676000	1513.949263
1.677000	1522.237335
1.678000	1530.206687
1.679000	1537.213337
1.680000	1544.549258
1.681000	1552.677722
1.682000	1558.737058
1.683000	1565.114286
1.684000	1573.088176
1.685000	1579.944411
1.686000	1587.432586
1.687000	1592.857480
1.688000	1599.553941
1.689000	1606.086437
1.690000	1612.310914
1.691000	1619.962043
1.692000	1625.056672
1.693000	1631.286500
1.694000	1636.230548
1.695000	1643.882356
1.696000	1649.468052
1.697000	1654.406071
1.698000	1659.522947
1.699000	1667.489135
1.700000	1672.755431
1.701000	1679.780998
1.702000	1686.321196
1.703000	1690.628964
1.704000	1697.333127
1.705000	1703.559956
1.706000	1708.513380
1.707000	1714.418806
1.708000	1718.894896
1.709000	1725.597552
1.710000	1730.235933
1.711000	1734.232337
1.712000	1739.821213
1.713000	1745.098724
1.714000	1751.322372
1.715000	1755.639516
1.716000	1760.277898
1.717000	1766.674556
1.718000	1770.036518
1.719000	1775.630082
1.720000	1780.905422
1.721000	1785.863369
1.722000	1791.142221
1.723000	1794.357628
1.724000	1798.042186
1.725000	1802.208252
1.726000	1807.491959
1.727000	1810.385465
1.728000	1813.756140
1.729000	1817.280245
1.730000	1819.859206
1.731000	1821.955482
1.732000	1826.448153
1.733000	1828.233562
1.734000	1831.921465
1.735000	1835.141576
1.736000	1836.923473
1.737000	1840.939985
1.738000	1843.196880
1.739000	1845.627116
1.740000	1847.406842
1.741000	1849.671937
1.742000	1851.138294
1.743000	1852.611177
1.744000	1854.235304
1.745000	1856.498892
1.746000	1858.446939
1.747000	1859.751170
1.748000	1859.312364
1.749000	1858.551477
1.750000	1856.994021
1.751000	1858.625685
1.752000	1859.934438
1.753000	1859.806650
1.754000	1859.206215
1.755000	1857.002441
1.756000	1857.198905
1.757000	1858.341342
1.758000	1858.851009
1.759000	1857.285852
1.760000	1856.684241
1.761000	1854.798343
1.762000	1852.912279
1.763000	1856.760123
1.764000	1854.880585
1.765000	1852.670103
1.766000	1851.101086
1.767000	1850.959234
1.768000	1850.835621
1.769000	1851.014842
1.770000	1850.239046
1.771000	1850.429812
1.772000	1849.497754
1.773000	1851.277646
1.774000	1850.829283
1.775000	1848.941877
1.776000	1848.160565
1.777000	1848.669041
1.778000	1847.089489
1.779000	1846.636769
1.780000	1845.221679
1.781000	1845.242285
1.782000	1844.630288
1.783000	1847.033739
1.784000	1845.619311
1.785000	1844.359654
1.786000	1844.532000
1.787000	1844.227012
1.788000	1846.150611
1.789000	1845.841432
1.790000	1845.378343
1.791000	1845.223588
1.792000	1841.565018
1.793000	1840.128493
1.794000	1839.670755
1.795000	1839.354205
1.796000	1837.278550
1.797000	1836.015532
1.798000	1834.093969
1.799000	1829.959889
1.800000	1826.289095
1.801000	1823.264620
1.802000	1817.044681
1.803000	1813.707996
1.804000	1810.357098
1.805000	1805.255793
1.806000	1799.194452
1.807000	1792.976518
1.808000	1786.439018
1.809000	1777.356549
1.810000	1770.503494
1.811000	1761.883301
1.812000	1753.118723
1.813000	1745.300116
1.814000	1732.548857
1.815000	1722.179930
1.816000	1710.694704
1.817000	1699.363571
1.818000	1686.450849
1.819000	1673.844638
1.820000	1659.322547
1.821000	1645.285327
1.822000	1629.973029
1.823000	1611.946280
1.824000	1593.121787
1.825000	1576.203467
1.826000	1556.895776
1.827000	1537.426290
1.828000	1515.087100
1.829000	1491.795230
1.830000	1468.173259
1.831000	1444.232387
1.832000	1419.342379
1.833000	1391.250182
1.834000	1362.212014
1.835000	1331.567657
1.836000	1300.279152
1.837000	1267.242907
1.838000	1230.530004
1.839000	1190.467380
1.840000	1153.288854
1.841000	1115.464176
1.842000	1075.724281
1.843000	1033.590508
1.844000	985.710934
1.845000	935.595727
1.846000	887.722348
1.847000	840.011262
1.848000	787.995603
1.849000	736.130011
1.850000	686.182489
1.851000	643.275589
1.852000	597.974463
1.853000	552.362486
1.854000	501.496287
1.855000	454.133737
1.856000	408.707838
1.857000	371.260667
1.858000	338.742124
1.859000	306.227605
1.860000	271.660375
1.861000	240.584402
1.862000	212.847616
1.863000	184.002250
1.864000	157.077784
1.865000	131.737423
1.866000	110.380729
1.867000	90.302459
1.868000	75.013285
1.869000	60.048861
1.870000	50.829211
1.871000	41.300368
1.872000	33.363483
1.873000	25.746163
1.874000	21.462828
1.875000	21.637014
1.876000	22.776585
1.877000	15.425969
1.878000	6.161477
1.879000	-6.599789
1.880000	-12.522411
1.881000	-13.338046
1.882000	-9.992333
1.883000	-3.598209
1.884000	1.192892
1.885000	3.593115
1.886000	3.446378
1.887000	5.215687
1.888000	5.373623
1.889000	6.968762
1.890000	3.305837
1.891000	3.290779
1.892000	1.202915
1.893000	-1.669638
1.894000	-4.065023
1.895000	-3.913101
1.896000	-1.834432
1.897000	-0.876914
1.898000	1.677914
1.899000	3.282082
1.900000	4.557491
1.901000	4.728314
1.902000	4.885089
1.903000	2.806752
1.904000	2.166794
1.905000	0.883185
1.906000	-0.555179
1.907000	-0.711442
1.908000	-1.039040
1.909000	0.081101
1.910000	1.363368
1.911000	1.361695
1.912000	2.958508
1.913000	3.279911
1.914000	3.443711
1.915000	3.120966
1.916000	2.322725
1.917000	-0.390385
1.918000	0.723742
1.919000	1.039463
1.920000	0.089301
1.921000	0.402670
1.922000	1.046321
1.923000	1.844562
1.924000	1.525992
1.925000	2.484520
1.926000	2.638943
1.927000	2.167125
1.928000	2.479666
1.929000	2.802411
1.930000	1.202584
1.931000	0.082608
1.932000	0.240212
1.933000	0.409363
1.934000	2.153409
1.935000	1.518636
1.936000	1.363203
1.937000	2.793880
1.938000	0.729259
1.939000	1.369895
1.940000	1.361695
1.941000	2.479335
1.942000	0.565128
1.943000	0.884361
1.944000	1.523324
1.945000	0.881678
1.946000	0.882522
1.947000	0.727254
1.948000	0.246573
1.949000	1.674567
1.950000	2.004171
1.951000	1.519134
1.952000	0.884361
1.953000	1.679752
1.954000	1.998985
1.955000	1.038121
1.956000	1.364378
1.957000	1.038784
1.958000	1.045477
1.959000	-0.232781
1.960000	0.725415
1.961000	1.683264
1.962000	1.515456
1.963000	0.723908
1.964000	1.040292
1.965000	1.520475
1.966000	1.203760
1.967000	1.195891
1.968000	1.046653
1.969000	1.520309
1.970000	0.084447
1.971000	0.404012
1.972000	1.515124
1.973000	1.361529
1.974000	1.999151
1.975000	1.362871
1.976000	0.250251
1.977000	1.682601
1.978000	1.045311
1.979000	1.677748
1.980000	1.197399
1.981000	0.084447
1.982000	2.152912
1.983000	1.358183
1.984000	2.638115
1.985000	1.678411
1.986000	2.157931
1.987000	-0.390883
1.988000	1.361032
1.989000	0.882522
1.990000	1.203594
1.991000	1.682767
1.992000	1.678924
1.993000	0.715708
1.994000	-0.074830
1.995000	2.477496
1.996000	1.362871
1.997000	0.726591
1.998000	0.879673
1.999000	1.685782
2.000000	1.200413
2.001000	1.994132
2.002000	2.159439
2.003000	1.999151
2.004000	1.994132
2.005000	0.566469
2.006000	1.520144
2.007000	1.361364
2.008000	1.364378
2.009000	1.361364
2.010000	1.038287
2.011000	0.562626
2.012000	-0.078011
2.013000	1.515456
2.014000	0.563289
2.015000	1.205433
2.016000	2.324745
2.017000	1.675909
2.018000	0.721737
2.019000	0.717547
2.020000	1.035604
2.021000	0.561284
2.022000	0.244734
2.023000	2.000327
2.024000	1.838864
2.025000	0.408865
2.026000	0.241720
2.027000	2.318219
2.028000	1.362705
2.029000	1.202749
2.030000	1.521817
2.031000	1.843220
2.032000	1.360022
2.033000	1.675909
2.034000	1.361364
2.035000	0.561284
2.036000	1.361364
2.037000	1.997312
2.038000	1.197233
2.039000	0.085955
2.040000	2.000327
2.041000	2.482681
2.042000	2.002000
2.043000	1.207106
2.044000	1.359359
2.045000	0.403680
2.046000	0.084116
2.047000	1.037956
2.048000	0.717050
2.049000	0.563123
2.050000	0.565128
2.051000	2.000493
2.052000	1.364213
2.053000	1.833016
2.054000	0.245066
2.055000	1.203925
2.056000	1.519812
2.057000	2.315038
2.058000	1.203594
2.059000	2.954664
2.060000	1.840884
2.061000	0.403514
2.062000	0.718557
2.063000	0.084281
2.064000	1.203760
2.065000	1.198906
2.066000	0.561284
2.067000	2.161112
2.068000	1.359525
2.069000	1.515290
2.070000	-0.233776
2.071000	1.200413
2.072000	1.838035
2.073000	1.354671
2.074000	1.524832
2.075000	1.207106
2.076000	0.563802
2.077000	2.315370
2.078000	1.359193
2.079000	0.723411
2.080000	-0.074996
2.081000	1.041633
2.082000	1.518305
2.083000	0.882191
2.084000	-0.071650
2.085000	0.726757
2.086000	1.358183
2.087000	0.082443
2.088000	1.043307
2.089000	1.840040
2.090000	1.841381
2.091000	2.158097
2.092000	1.994976
2.093000	1.522827
2.094000	0.240212
2.095000	0.880517
2.096000	0.885868
2.097000	1.041136
2.098000	0.723576
2.099000	0.877834
2.100000	2.798899
2.101000	0.882522
2.102000	1.360701
2.103000	1.038453
2.104000	1.519978
2.105000	1.361032
2.106000	1.359856
2.107000	0.723742
2.108000	1.200082
2.109000	0.404012
2.110000	1.837538
2.111000	1.205598
2.112000	1.198740
2.113000	0.244900
2.114000	1.841216
2.115000	1.839543
2.116000	-0.868880
2.117000	1.679089
2.118000	0.719220
2.119000	-0.075162
2.120000	0.723079
2.121000	0.720064
2.122000	0.877337
2.123000	1.833513
2.124000	1.195394
2.125000	0.716884
2.126000	0.247915
2.127000	0.721572
2.128000	0.560108
2.129000	1.043141
2.130000	1.359359
2.131000	1.361198
2.132000	0.879507
2.133000	0.882191
2.134000	0.248246
2.135000	1.679587
2.136000	1.993966
2.137000	1.044648
2.138000	0.722913
2.139000	-0.071650
2.140000	1.358018
2.141000	1.354506
2.142000	2.159770
2.143000	1.518802
2.144000	1.044482
2.145000	0.879010
2.146000	0.560953
2.147000	0.563802
2.148000	1.678758
2.149000	0.564465
2.150000	1.521651
2.151000	1.832850
2.152000	1.039629
2.153000	1.669382
2.154000	1.200248
2.155000	1.677251
2.156000	1.525329
2.157000	2.155761
2.158000	0.879010
2.159000	1.357686
2.160000	1.835865
2.161000	0.564796
2.162000	1.362871
2.163000	0.720230
2.164000	0.562792
2.165000	1.198906
2.166000	1.193721
2.167000	1.361198
2.168000	0.718888
2.169000	1.352832
2.170000	2.153078
2.171000	2.158941
2.172000	0.567977
2.173000	0.400665
2.174000	1.039629
2.175000	1.675743
2.176000	1.036780
2.177000	1.200579
2.178000	1.365720
2.179000	1.518305
2.180000	1.360369
2.181000	0.402173
2.182000	1.200579
2.183000	0.879010
2.184000	1.197564
2.185000	2.477496
2.186000	1.993469
2.187000	1.526339
2.188000	1.841381
2.189000	1.839377
2.190000	1.356676
2.191000	1.040126
2.192000	0.560953
2.193000	1.357852
2.194000	2.151570
2.195000	0.879010
2.196000	1.359359
2.197000	1.834689
2.198000	0.562626
2.199000	0.723411
2.200000	1.675743
2.201000	1.362871
2.202000	0.561119
2.203000	2.788529
2.204000	1.039463
2.205000	0.085623
2.206000	0.400334
2.207000	0.400334
2.208000	1.193887
2.209000	-0.074830
2.210000	0.723245
2.211000	1.195726
2.212000	2.159273
2.213000	1.836528
2.214000	1.511612
2.215000	2.001669
2.216000	1.833513
2.217000	1.359193
2.218000	1.515124
2.219000	1.516632
2.220000	1.041136
2.221000	1.675412
2.222000	0.878679
2.223000	2.001669
2.224000	1.041302
2.225000	1.995474
2.226000	1.518305
2.227000	0.561119
2.228000	0.243061
2.229000	1.039297
2.230000	0.562294
2.231000	0.239881
2.232000	1.039629
2.233000	1.993800
2.234000	0.724918
2.235000	0.718888
2.236000	0.564465
2.237000	1.354340
2.238000	1.833016
2.239000	0.718060
2.240000	0.405685
2.241000	1.037790
2.242000	0.880517
2.243000	1.360701
2.244000	0.554758
2.245000	1.359359
2.246000	0.080604
2.247000	0.562129
2.248000	0.402504
2.249000	1.200082
2.250000	1.361198
2.251000	-0.555345
2.252000	1.204936
2.253000	0.879341
2.254000	1.200248
2.255000	1.519647
2.256000	0.402007
2.257000	-0.243151
2.258000	1.205598
2.259000	1.039463
2.260000	1.203925
2.261000	1.836031
2.262000	1.358018
2.263000	0.880849
2.264000	0.877834
2.265000	2.152912
2.266000	0.401510
2.267000	0.083784
2.268000	1.833182
2.269000	1.993469
2.270000	1.680265
2.271000	0.404012
2.272000	0.557607
2.273000	1.042975
2.274000	0.562626
2.275000	0.880517
2.276000	1.041302
2.277000	1.042809
2.278000	1.838201
2.279000	1.993469
2.280000	0.560621
2.281000	1.200413
2.282000	0.721240
2.283000	1.995308
2.284000	1.839708
2.285000	1.674070
2.286000	2.470306
2.287000	1.836196
2.288000	-0.074996
2.289000	-0.549994
2.290000	0.397485
2.291000	0.401676
2.292000	1.677085
2.293000	1.680265
2.294000	0.723245
2.295000	0.559611
2.296000	1.837869
2.297000	1.193555
2.298000	0.879341
2.299000	1.039463
2.300000	0.882025
2.301000	0.564631
2.302000	0.717215
2.303000	1.350828
2.304000	1.039629
2.305000	1.994976
2.306000	1.355847
2.307000	1.829835
2.308000	1.511944
2.309000	2.315204
2.310000	0.085955
2.311000	0.716718
2.312000	1.195228
2.313000	1.514959
2.314000	1.676919
2.315000	1.515290
2.316000	0.721903
2.317000	1.515622
2.318000	0.879176
2.319000	1.990454
2.320000	2.151570
2.321000	0.564133
2.322000	1.197399
2.323000	0.718391
2.324000	1.351159
2.325000	1.201755
2.326000	1.356179
2.327000	0.562129
2.328000	1.998488
2.329000	0.396822
2.330000	1.198409
2.331000	1.354174
2.332000	1.675246
2.333000	0.882356
2.334000	1.198740
2.335000	1.839211
2.336000	1.199916
2.337000	0.880683
2.338000	0.877005
2.339000	0.724918
2.340000	2.476833
2.341000	0.877503
2.342000	1.839543
2.343000	1.195228
2.344000	0.882356
2.345000	0.880849
2.346000	1.838201
2.347000	2.150907
2.348000	1.198575
2.349000	25.651246
2.350000	65.361555
2.351000	196.957635
2.352000	299.918777
2.353000	268.849458
2.354000	175.991258
2.355000	190.490051
2.356000	378.710721
2.357000	580.085283
2.358000	791.444669
2.359000	981.766161
2.360000	1339.459095
2.361000	1857.764931
2.362000	2354.712172
2.363000	2596.374278
2.364000	2512.481077
2.365000	2262.507675
2.366000	1982.633321
2.367000	1720.973988
2.368000	1437.931656
2.369000	1173.464398
2.370000	965.996845
2.371000	863.888123
2.372000	836.011339
2.373000	851.939342
2.374000	867.711896
2.375000	898.918008
2.376000	938.721041
2.377000	992.376043
2.378000	1033.873347
2.379000	1061.661180
2.380000	1075.470597
2.381000	1087.674835
2.382000	1107.388501
2.383000	1118.527029
2.384000	1125.207903
2.385000	1121.225579
2.386000	1131.304276
2.387000	1158.436469
2.388000	1205.313667
2.389000	1255.067940
2.390000	1306.854516
2.391000	1358.169244
2.392000	1412.663880
2.393000	1461.265829
2.394000	1505.406445
2.395000	1537.417672
2.396000	1566.075484
2.397000	1596.167319
2.398000	1630.856853
2.399000	1675.726765
2.400000	1758.436667
2.401000	1917.471824
2.402000	2105.876845
2.403000	2209.163802
2.404000	2260.373551
2.405000	2415.007689
2.406000	2697.958954
2.407000	2933.778858
2.408000	3001.191206
2.409000	3007.191590
2.410000	3088.272157
2.411000	3234.678155
2.412000	3324.848934
2.413000	3337.290061
2.414000	3354.279018
2.415000	3426.828146
2.416000	3526.261050
2.417000	3603.274478
2.418000	3651.455996
2.419000	3705.764138
2.420000	3773.799768
2.421000	3823.951731
2.422000	3820.066479
2.423000	3768.181135
2.424000	3699.524245
2.425000	3630.723443
2.426000	3554.736968
2.427000	3452.965133
2.428000	3334.796373
2.429000	3220.589197
2.430000	3114.996050
2.431000	3016.415764
2.432000	2920.199405
2.433000	2823.980410
2.434000	2733.648586
2.435000	2652.373291
2.436000	2579.076408
2.437000	2510.061171
2.438000	2442.453835
2.439000	2375.653136
2.440000	2315.213431
2.441000	2255.732420
2.442000	2194.823083
2.443000	2134.534212
2.444000	2079.500619
2.445000	2034.976811
2.446000	1996.025085
2.447000	1960.400485
2.448000	1931.794216
2.449000	1908.106535
2.450000	1888.712860
2.451000	1868.063521
2.452000	1844.533081
2.453000	1819.559061
2.454000	1799.209178
2.455000	1782.990676
2.456000	1772.508916
2.457000	1761.389186
2.458000	1747.222718
2.459000	1736.732229
2.460000	1728.297633
2.461000	1724.328393
2.462000	1722.098331
2.463000	1722.889050
2.464000	1725.112602
2.465000	1729.868054
2.466000	1736.060695
2.467000	1745.112338
2.468000	1757.189949
2.469000	1767.667400
2.470000	1779.103198
2.471000	1788.791769
2.472000	1801.494279
2.473000	1814.361749
2.474000	1827.703885
2.475000	1841.522843
2.476000	1855.828692
2.477000	1868.860127
2.478000	1883.322239
2.479000	1897.939453
2.480000	1910.017726
2.481000	1922.251268
2.482000	1928.911354
2.483000	1940.352187
2.484000	1947.653076
2.485000	1954.952126
2.486000	1961.615906
2.487000	1966.844486
2.488000	1970.010134
2.489000	1968.547305
2.490000	1968.678605
2.491000	1966.433106
2.492000	1963.065627
2.493000	1959.854079
2.494000	1957.139462
2.495000	1953.603511
2.496000	1949.595909
2.497000	1945.441088
2.498000	1937.461547
2.499000	1929.314513
2.500000	1921.028477
2.501000	1910.016758
2.502000	1899.333814
2.503000	1887.065271
2.504000	1869.854851
2.505000	1856.945672
2.506000	1842.620724
2.507000	1827.004796
2.508000	1810.915211
2.509000	1793.411530
2.510000	1777.320603
2.511000	1761.720080
2.512000	1745.967635
2.513000	1728.772636
2.514000	1712.379223
2.515000	1695.510646
2.516000	1678.484797
2.517000	1663.205496
2.518000	1645.535498
2.519000	1628.664072
2.520000	1610.842484
2.521000	1593.974901
2.522000	1576.627301
2.523000	1560.546248
2.524000	1541.446898
2.525000	1524.887998
2.526000	1508.499588
2.527000	1492.578143
2.528000	1475.703687
2.529000	1458.507496
2.530000	1444.987134
2.531000	1426.834916
2.532000	1410.280869
2.533000	1394.831905
2.534000	1379.865460
2.535000	1364.425872
2.536000	1349.935933
2.537000	1336.244897
2.538000	1320.156638
2.539000	1306.783163
2.540000	1291.496656
2.541000	1279.563897
2.542000	1265.062578
2.543000	1252.165939
2.544000	1239.745294
2.545000	1225.727338
2.546000	1214.424001
2.547000	1199.933730
2.548000	1189.103220
2.549000	1177.160753
2.550000	1165.377067
2.551000	1151.993884
2.552000	1141.961102
2.553000	1130.496814
2.554000	1119.980668
2.555000	1108.038036
2.556000	1098.796470
2.557000	1088.131417
2.558000	1076.344550
2.559000	1066.632177
2.560000	1056.435761
2.561000	1046.886343
2.562000	1037.005815
2.563000	1027.768093
2.564000	1016.940416
2.565000	1008.499262
2.566000	998.622592
2.567000	990.338876
2.568000	981.095803
2.569000	970.751657
2.570000	962.789344
2.571000	953.870192
2.572000	946.220254
2.573000	936.503856
2.574000	929.185029
2.575000	920.902986
2.576000	911.348549
2.577000	904.656460
2.578000	897.006522
2.579000	889.528915
2.580000	882.679388
2.581000	873.916664
2.582000	866.744393
2.583000	859.898046
2.584000	851.932553
2.585000	847.156013
2.586000	839.672708
2.587000	832.812298
2.588000	825.491632
2.589000	819.117600
2.590000	812.745739
2.591000	807.012842
2.592000	800.001188
2.593000	795.061678
2.594000	788.212317
2.595000	782.800657
2.596000	776.580552
2.597000	770.371314
2.598000	763.996951
2.599000	759.853495
2.600000	752.203889
2.601000	748.223237
2.602000	741.691933
2.603000	734.522163
2.604000	730.059324
2.605000	726.077331
2.606000	718.905059
2.607000	713.492389
2.608000	708.237836
2.609000	702.977419
2.610000	698.200697
2.611000	693.103748
2.612000	688.797503
2.613000	684.817018
2.614000	678.923667
2.615000	673.666596
2.616000	668.886031
2.617000	664.424179
2.618000	659.639423
2.619000	655.021994
2.620000	651.839071
2.621000	646.575142
2.622000	641.000180
2.623000	636.699798
2.624000	633.037867
2.625000	627.775114
2.626000	624.277148
2.627000	619.970571
2.628000	615.348786
2.629000	609.774834
2.630000	606.273688
2.631000	602.292026
2.632000	598.144561
2.633000	593.044597
2.634000	589.861011
2.635000	585.394991
2.636000	581.411656
2.637000	576.954002
2.638000	573.131121
2.639000	571.062159
2.640000	566.757421
2.641000	562.294913
2.642000	559.910230
2.643000	557.678479
2.644000	551.787298
2.645000	551.305608
2.646000	548.438239
2.647000	544.292613
2.648000	541.104007
2.649000	537.443583
2.650000	535.691337
2.651000	532.815935
2.652000	529.631172
2.653000	527.714961
2.654000	525.803437
2.655000	523.579207
2.656000	521.194027
2.657000	519.279488
2.658000	516.722806
2.659000	514.173164
2.660000	512.743662
2.661000	510.829455
2.662000	509.228286
2.663000	507.800292
2.664000	506.518688
2.665000	505.087514
2.666000	504.293116
2.667000	501.742961
2.668000	500.788789
2.669000	500.780755
2.670000	500.464205
2.671000	497.281282
2.672000	497.588787
2.673000	496.634782
2.674000	497.585938
2.675000	497.106418
2.676000	496.149729
2.677000	495.667707
2.678000	496.625390
2.679000	496.619526
2.680000	496.615170
2.681000	498.692166
2.682000	498.050354
2.683000	498.205109
2.684000	499.796902
2.685000	500.430002
2.686000	500.107754
2.687000	500.264348
2.688000	501.220358
2.689000	504.249687
2.690000	503.440895
2.691000	505.035024
2.692000	506.468037
2.693000	507.261922
2.694000	507.260911
2.695000	510.605283
2.696000	510.920657
2.697000	512.673069
2.698000	513.308670
2.699000	514.417100
2.700000	516.166828
2.701000	516.811640
2.702000	520.305415
2.703000	520.461512
2.704000	522.050456
2.705000	522.687399
2.706000	523.959462
2.707000	525.873322
2.708000	526.823303
2.709000	528.886235
2.710000	530.797427
2.711000	532.234118
2.712000	534.141451
2.713000	535.730064
2.714000	538.112230
2.715000	539.228512
2.716000	542.090364
2.717000	544.476704
2.718000	546.542651
2.719000	548.606760
2.720000	550.997456
2.721000	553.546767
2.722000	554.813298
2.723000	558.323639
2.724000	558.946866
2.725000	562.932702
2.726000	565.477822
2.727000	567.064762
2.728000	570.251861
2.729000	573.593383
2.730000	575.822451
2.731000	577.254122
2.732000	581.545144
2.733000	583.299048
2.734000	585.683052
2.735000	590.775992
2.736000	591.564178
2.737000	594.431712
2.738000	597.627011
2.739000	600.478974
2.740000	603.029626
2.741000	605.891297
2.742000	608.444120
2.743000	611.776432
2.744000	614.324567
2.745000	618.778212
2.746000	619.736724
2.747000	623.230997
2.748000	626.898279
2.749000	628.961708
2.750000	633.577977
2.751000	636.122434
2.752000	639.945300
2.753000	642.968102
2.754000	645.994913
2.755000	649.335425
2.756000	651.883063
2.757000	654.742729
2.758000	658.248216
2.759000	662.063561
2.760000	664.928080
2.761000	666.520702
2.762000	671.132945
2.763000	673.199571
2.764000	674.788168
2.765000	678.457124
2.766000	681.639368
2.767000	684.179304
2.768000	686.729112
2.769000	690.068630
2.770000	692.777218
2.771000	695.317485
2.772000	699.775305
2.773000	700.732988
2.774000	703.434205
2.775000	707.260930
2.776000	709.003801
2.777000	712.187388
2.778000	715.370295
2.779000	717.756139
2.780000	721.422245
2.781000	722.847224
2.782000	725.869182
2.783000	728.097255
2.784000	731.284354
2.785000	733.671704
2.786000	736.213486
2.787000	739.393727
2.788000	740.989860
2.789000	744.650616
2.790000	747.035962
2.791000	749.901160
2.792000	753.085409
2.793000	754.676855
2.794000	757.547736
2.795000	759.924882
2.796000	762.471510
2.797000	764.222083
2.798000	766.294391
2.799000	767.884843
2.800000	770.747689
2.801000	773.610369
2.802000	776.005422
2.803000	776.638688
2.804000	779.821777
2.805000	782.527185
2.806000	783.158446
2.807000	785.709264
2.808000	788.733574
2.809000	789.846012
2.810000	791.757204
2.811000	791.118241
2.812000	793.821644
2.813000	795.893289
2.814000	796.369116
2.815000	797.480229
2.816000	798.755638
2.817000	801.144662
2.818000	802.415383
2.819000	803.215297
2.820000	804.961514
2.821000	805.442195
2.822000	808.784064
2.823000	809.903874
2.824000	808.945511
2.825000	810.854865
2.826000	811.811207
2.827000	812.280673
2.828000	813.715540
2.829000	815.465601
2.830000	815.467605
2.831000	817.860488
2.832000	817.214667
2.833000	818.646173
2.834000	818.965903
2.835000	820.242820
2.836000	821.195649
2.837000	820.871231
2.838000	819.761460
2.839000	823.104490
2.840000	821.350736
2.841000	821.188113
2.842000	821.352243
2.843000	822.626145
2.844000	822.464185
2.845000	823.420708
2.846000	823.260587
2.847000	823.257738
2.848000	823.577468
2.849000	822.941519
2.850000	823.100465
2.851000	822.779724
2.852000	823.096109
2.853000	822.143776
2.854000	822.140595
2.855000	822.138756
2.856000	821.184751
2.857000	821.183575
2.858000	820.706738
2.859000	820.231905
2.860000	818.796887
2.861000	819.111598
2.862000	819.119451
2.863000	818.164450
2.864000	818.159597
2.865000	817.524145
2.866000	816.251419
2.867000	815.930182
2.868000	815.454173
2.869000	813.222754
2.870000	813.063974
2.871000	812.111475
2.872000	810.675779
2.873000	810.196771
2.874000	809.074278
2.875000	809.082312
2.876000	808.761240
2.877000	807.336095
2.878000	805.731746
2.879000	804.143457
2.880000	803.830253
2.881000	800.797413
2.882000	800.323259
2.883000	799.207458
2.884000	797.136989
2.885000	796.979053
2.886000	796.823785
2.887000	794.271459
2.888000	793.155327
2.889000	792.041713
2.890000	791.570905
2.891000	789.492402
2.892000	788.702361
2.893000	787.741331
2.894000	784.237501
2.895000	783.440768
2.896000	782.809507
2.897000	781.851327
2.898000	780.580771
2.899000	779.467985
2.900000	777.072932
2.901000	775.963327
2.902000	775.646611
2.903000	774.689093
2.904000	773.891019
2.905000	771.508522
2.906000	770.551998
2.907000	769.117809
2.908000	768.004195
2.909000	767.364402
2.910000	766.410894
2.911000	764.659823
2.912000	762.431071
2.913000	761.475061
2.914000	760.833596
2.915000	759.398396
2.916000	758.763789
2.917000	757.973583
2.918000	756.376936
2.919000	756.217825
2.920000	753.986571
2.921000	752.076886
2.922000	752.075544
2.923000	751.121207
2.924000	750.811681
2.925000	750.800632
2.926000	748.733509
2.927000	747.618553
2.928000	746.504426
2.929000	746.505436
2.930000	746.184364
2.931000	746.825000
2.932000	745.551761
2.933000	744.279533
2.934000	742.846354
2.935000	741.889499
2.936000	742.689412
2.937000	742.045098
2.938000	740.772704
2.939000	740.772870
2.940000	739.815849
2.941000	738.708761
2.942000	737.903994
2.943000	737.910521
2.944000	737.108768
2.945000	736.479180
2.946000	734.725095
2.947000	737.118475
2.948000	735.998666
2.949000	734.885714
2.950000	734.727613
2.951000	733.291916
2.952000	733.138155
2.953000	732.174111
2.954000	733.291916
2.955000	733.136482
2.956000	731.067852
2.957000	731.705142
2.958000	730.584835
2.959000	729.955413
2.960000	731.063677
2.961000	730.598220
2.962000	730.601069
2.963000	731.394456
2.964000	729.160022
2.965000	728.361284
2.966000	729.321651
2.967000	727.890973
2.968000	728.680848
2.969000	729.167890
2.970000	727.734711
2.971000	728.052934
2.972000	727.571590
2.973000	727.578614
2.974000	727.099607
2.975000	728.055451
2.976000	727.103119
2.977000	727.102787
2.978000	727.263738
2.979000	727.104460
2.980000	726.308406
2.981000	726.151796
2.982000	726.472371
2.983000	727.588503
2.984000	726.312597
2.985000	726.155821
2.986000	726.792946
2.987000	725.202825
2.988000	725.517371
2.989000	726.639864
2.990000	725.046894
2.991000	726.006598
2.992000	724.729350
2.993000	725.047407
2.994000	725.210544
2.995000	724.730858
2.996000	724.571746
2.997000	724.251850
2.998000	724.095588
2.999000	723.941661
3.000000	723.777530
3.001000	724.093915
3.002000	723.944345
3.003000	723.940833
3.004000	724.580293
3.005000	725.219588
3.006000	723.304552
3.007000	723.628126
3.008000	723.310748
3.009000	723.786243
3.010000	722.835749
3.011000	723.625624
3.012000	722.829057
3.013000	723.468352
3.014000	724.263080
3.015000	723.628971
3.016000	722.667096
3.017000	724.267768
3.018000	723.630312
3.019000	724.430060
3.020000	723.943184
3.021000	725.064336
3.022000	723.307236
3.023000	724.589503
3.024000	724.905390
3.025000	724.431733
3.026000	724.587333
3.027000	726.814578
3.028000	726.659475
3.029000	725.227125
3.030000	726.819763
3.031000	726.179292
3.032000	727.298770
3.033000	727.614823
3.034000	727.456043
3.035000	727.929368
3.036000	728.731452
3.037000	727.615320
3.038000	729.050851
3.039000	729.688970
3.040000	729.528185
3.041000	729.526346
3.042000	731.598489
3.043000	731.276920
3.044000	731.434689
3.045000	731.916380
3.046000	733.032844
3.047000	733.350735
3.048000	733.664949
3.049000	733.352574
3.050000	733.508173
3.051000	734.311268
3.052000	735.267112
3.053000	735.904900
3.054000	736.701301
3.055000	736.858574
3.056000	737.970350
3.057000	738.134646
3.058000	739.251788
3.059000	738.615840
3.060000	739.889576
3.061000	741.643495
3.062000	740.845421
3.063000	741.476847
3.064000	741.960045
3.065000	743.074338
3.066000	744.502995
3.067000	743.870724
3.068000	745.622474
3.069000	745.616791
3.070000	745.778405
3.071000	747.538188
3.072000	748.492359
3.073000	747.854240
3.074000	748.331741
3.075000	749.608326
3.076000	752.155798
3.077000	750.402376
3.078000	750.882725
3.079000	752.152120
3.080000	752.960731
3.081000	752.317758
3.082000	753.270091
3.083000	753.274447
3.084000	754.873099
3.085000	756.141981
3.086000	755.510223
3.087000	756.782286
3.088000	756.464561
3.089000	757.579185
3.090000	756.941232
3.091000	758.059535
3.092000	758.539386
3.093000	760.290125
3.094000	759.648660
3.095000	760.290125
3.096000	760.288287
3.097000	759.330935
3.098000	762.045221
3.099000	762.045884
3.100000	762.838442
3.101000	761.408096
3.102000	763.321806
3.103000	763.159514
3.104000	764.113520
3.105000	764.601737
3.106000	764.754488
3.107000	764.439280
3.108000	764.918287
3.109000	765.714523
3.110000	765.077912
3.111000	765.716362
3.112000	766.193033
3.113000	766.352311
3.114000	765.876318
3.115000	765.558095
3.116000	765.879333
3.117000	767.951144
3.118000	768.104904
3.119000	768.112773
3.120000	768.587092
3.121000	768.429488
3.122000	768.910847
3.123000	768.113104
3.124000	770.179896
3.125000	768.272894
3.126000	768.753078
3.127000	768.753243
3.128000	768.908677
3.129000	770.193793
3.130000	769.238280
3.131000	770.030673
3.132000	770.831249
3.133000	770.674143
3.134000	770.355588
3.135000	769.560362
3.136000	771.472896
3.137000	771.312112
3.138000	772.264610
3.139000	770.996059
3.140000	771.474403
3.141000	770.995562
3.142000	772.747808
3.143000	772.585185
3.144000	773.229665
3.145000	772.595223
3.146000	771.947894
3.147000	772.744296
3.148000	771.955763
3.149000	773.555590
3.150000	774.347983
3.151000	773.235363
3.152000	772.274996
3.153000	772.284869
3.154000	773.710858
3.155000	772.595571
3.156000	774.028584
3.157000	774.036618
3.158000	774.035111
3.159000	773.557776
3.160000	773.400669
3.161000	774.354012
3.162000	773.879858
3.163000	773.881531
3.164000	773.562133
3.165000	773.722751
3.166000	773.563640
3.167000	773.722917
3.168000	774.205618
3.169000	772.765399
3.170000	773.088310
3.171000	771.973023
3.172000	772.925355
3.173000	772.135314
3.174000	772.292256
3.175000	771.815253
3.176000	771.973023
3.177000	771.339757
3.178000	771.177962
3.179000	770.065690
3.180000	770.548209
3.181000	769.908417
3.182000	770.549882
3.183000	771.026554
3.184000	768.956084
3.185000	770.386430
3.186000	769.431083
3.187000	769.911432
3.188000	769.591536
3.189000	769.274986
3.190000	769.119718
3.191000	769.596721
3.192000	770.396469
3.193000	769.118045
3.194000	769.123908
3.195000	768.640545
3.196000	769.596224
3.197000	769.597399
3.198000	768.959778
3.199000	768.957939
3.200000	769.438619
3.201000	768.802174
3.202000	769.761530
3.203000	768.802339
3.204000	770.079090
3.205000	768.648413
3.206000	769.919813
3.207000	770.716878
3.208000	770.077086
3.209000	769.442976
3.210000	768.962295
3.211000	769.122914
3.212000	770.398489
3.213000	769.599751
3.214000	769.767394
3.215000	769.921818
3.216000	769.439298
3.217000	769.921155
3.218000	769.124587
3.219000	769.127933
3.220000	768.966486
3.221000	768.329693
3.222000	770.560449
3.223000	768.968325
3.224000	770.078427
3.225000	767.693578
3.226000	768.968656
3.227000	769.605781
3.228000	768.490493
3.229000	768.648594
3.230000	768.169587
3.231000	768.171094
3.232000	768.330371
3.233000	768.804028
3.234000	770.564143
3.235000	769.922165
3.236000	770.083794
3.237000	769.605615
3.238000	769.121920
3.239000	769.129622
3.240000	768.487644
3.241000	769.129788
3.242000	768.492829
3.243000	768.651609
3.244000	769.441816
3.245000	768.486981
3.246000	769.768751
3.247000	768.010310
3.248000	768.331713
3.249000	769.289065
3.250000	769.762225
3.251000	768.967165
3.252000	769.290075
3.253000	769.285387
3.254000	767.690911
3.255000	768.009978
3.256000	768.493839
3.257000	768.010144
3.258000	768.488820
3.259000	768.170431
3.260000	768.009812
3.261000	768.649273
3.262000	768.015495
3.263000	768.164070
3.264000	768.967993
3.265000	768.326694
3.266000	767.851198
3.267000	769.284046
3.268000	768.324523
3.269000	767.053289
3.270000	768.963471
3.271000	769.281031
3.272000	769.126773
3.273000	768.964647
3.274000	769.604439
3.275000	769.118408
3.276000	768.801179
3.277000	769.122251
3.278000	770.077764
3.279000	769.120909
3.280000	771.190882
3.281000	771.037634
3.282000	771.195735
3.283000	770.235368
3.284000	771.512119
3.285000	769.912292
3.286000	771.028921
3.287000	770.871317
3.288000	772.461603
3.289000	770.387787
3.290000	772.143877
3.291000	770.394480
3.292000	770.552250
3.293000	771.988112
3.294000	770.869810
3.295000	771.025906
3.296000	771.340617
3.297000	770.864112
3.298000	771.182003
3.299000	772.623216
3.300000	771.980741
3.301000	771.501402
3.302000	771.821629
3.303000	771.820966
3.304000	770.708678
3.305000	771.342788
3.306000	771.024896
3.307000	771.659337
3.308000	771.341446
3.309000	770.858082
3.310000	771.498719
3.311000	771.816776
3.312000	770.863101
3.313000	770.866448
3.314000	772.132315
3.315000	771.814590
3.316000	771.503391
3.317000	771.173622
3.318000	771.974033
3.319000	771.334406
3.320000	770.378727
3.321000	770.690424
3.322000	771.967837
3.323000	771.013997
3.324000	770.693770
3.325000	771.171270
3.326000	770.696106
3.327000	771.012159
3.328000	770.212576
3.329000	771.008978
3.330000	770.852368
3.331000	771.327201
3.332000	769.736568
3.333000	772.601103
3.334000	772.442489
3.335000	771.962637
3.336000	772.438298
3.337000	772.754682
3.338000	772.438298
3.339000	773.393132
3.340000	771.960119
3.341000	774.030423
3.342000	772.433942
3.343000	774.344124
3.344000	774.190031
3.345000	775.458251
3.346000	773.857745
3.347000	774.974208
3.348000	775.136666
3.349000	775.131150
3.350000	775.292763
3.351000	774.975882
3.352000	775.449870
3.353000	776.569845
3.354000	775.612493
3.355000	776.089993
3.356000	775.768756
3.357000	776.724434
3.358000	775.605288
3.359000	776.718074
3.360000	776.083964
3.361000	777.195408
3.362000	777.518484
3.363000	774.645087
3.364000	775.923511
3.365000	777.189378
3.366000	777.353675
3.367000	776.878345
3.368000	778.310530
3.369000	777.035618
3.370000	776.550581
3.371000	776.554590
3.372000	775.756018
3.373000	777.825990
3.374000	775.589038
3.375000	775.590877
3.376000	776.864945
3.377000	776.065710
3.378000	775.749823
3.379000	777.499054
3.380000	776.543541
3.381000	777.340606
3.382000	775.106337
3.383000	777.172119
3.384000	776.378566
3.385000	776.540858
3.386000	776.215098
3.387000	775.744456
3.388000	776.858915
3.389000	776.540013
3.390000	776.377556
3.391000	777.492015
3.392000	777.172782
3.393000	775.419194
3.394000	775.574296
3.395000	775.574627
3.396000	776.212746
3.397000	775.735412
3.398000	775.896528
3.399000	775.575125
3.400000	775.257565
3.401000	775.731221
3.402000	776.522604
3.403000	774.454802
3.404000	774.296188
3.405000	775.577792
3.406000	774.298026
3.407000	774.773356
3.408000	773.817677
3.409000	775.569245
3.410000	774.770342
3.411000	776.210047
3.412000	775.093418
3.413000	774.290324
3.414000	775.087389
3.415000	774.609044
3.416000	776.527094
3.417000	776.204018
3.418000	774.768653
3.419000	775.726336
3.420000	774.288635
3.421000	775.246319
3.422000	776.041710
3.423000	775.083016
3.424000	775.402250
3.425000	775.873223
3.426000	775.725823
3.427000	775.240455
3.428000	776.039193
3.429000	775.234425
3.430000	776.668946
3.431000	775.397877
3.432000	775.238766
3.433000	775.396204
3.434000	777.304547
3.435000	775.231229
3.436000	776.823685
3.437000	777.141411
3.438000	776.343336
3.439000	776.982963
3.440000	776.179868
3.441000	776.337638
3.442000	777.930939
3.443000	777.450921
3.444000	777.287951
3.445000	776.496403
3.446000	777.450740
3.447000	775.536201
3.448000	778.718612
3.449000	777.762767
3.450000	778.083161
3.451000	777.762255
3.452000	778.553968
3.453000	777.277218
3.454000	778.072775
3.455000	778.230876
3.456000	776.793341
3.457000	778.064394
3.458000	775.678700
3.459000	778.061545
3.460000	777.429274
3.461000	777.108699
3.462000	776.626842
3.463000	777.582687
3.464000	777.899568
3.465000	776.934845
3.466000	775.983175
3.467000	776.141790
3.468000	776.459003
3.469000	775.980658
3.470000	775.974628
3.471000	777.245516
3.472000	776.286656
3.473000	776.610565
3.474000	776.760301
3.475000	776.446932
3.476000	775.325433
3.477000	775.801260
3.478000	775.965391
3.479000	775.957523
3.480000	776.277750
3.481000	775.313027
3.482000	775.157925
3.483000	776.748211
3.484000	774.991939
3.485000	776.421772
3.486000	775.146860
3.487000	776.898096
3.488000	776.262479
3.489000	775.610462
3.490000	775.931021
3.491000	776.564784
3.492000	774.651240
3.493000	774.805498
3.494000	775.763347
3.495000	775.439261
3.496000	774.797614
3.497000	776.389573
3.498000	774.795262
3.499000	775.581775
3.500000	775.588799
3.501000	774.944982
3.502000	774.781846
3.503000	775.413272
3.504000	775.892943
3.505000	775.245945
3.506000	774.294441
3.507000	774.446347
3.508000	775.241573
3.509000	775.397670
3.510000	775.396991
3.511000	775.711868
3.512000	776.186353
3.513000	775.224976
3.514000	774.586510
3.515000	774.417179
3.516000	773.782737
3.517000	773.780717
3.518000	773.458138
3.519000	773.137397
3.520000	773.456117
3.521000	775.359275
3.522000	772.652842
3.523000	773.923895
3.524000	773.760593
3.525000	773.915182
3.526000	773.274032
3.527000	772.950277
3.528000	772.626191
3.529000	772.303777
3.530000	771.979012
3.531000	771.502009
3.532000	770.540963
3.533000	771.970465
3.534000	771.009253
3.535000	771.330144
3.536000	772.124194
3.537000	772.913224
3.538000	771.482381
3.539000	772.111622
3.540000	772.108773
3.541000	771.148903
3.542000	772.414258
3.543000	771.936079
3.544000	772.248107
3.545000	770.966668
3.546000	771.606792
3.547000	771.921487
3.548000	771.595893
3.549000	772.232339
3.550000	771.583155
3.551000	772.064168
3.552000	771.263078
3.553000	771.099942
3.554000	771.733538
3.555000	771.730689
3.556000	771.089374
3.557000	772.514851
3.558000	771.078475
3.559000	771.716263
3.560000	771.870008
3.561000	771.869329
3.562000	772.020904
3.563000	772.490867
3.564000	772.330414
3.565000	773.605476
3.566000	773.281389
3.567000	773.911806
3.568000	772.639064
3.569000	773.267642
3.570000	772.144470
3.571000	774.850888
3.572000	774.205216
3.573000	774.523273
3.574000	774.997759
3.575000	776.269143
3.576000	775.619131
3.577000	776.100475
3.578000	776.570438
3.579000	776.569593
3.580000	777.840646
3.581000	777.359287
3.582000	779.104825
3.583000	778.146297
3.584000	779.734066
3.585000	778.928785
3.586000	779.091740
3.587000	780.836284
3.588000	780.678167
3.589000	780.667450
3.590000	780.345533
3.591000	780.503635
3.592000	782.248510
3.593000	783.201340
3.594000	781.923745
3.595000	783.037193
3.596000	784.629318
3.597000	784.147114
3.598000	785.892834
3.599000	787.324506
3.600000	785.728853
3.601000	786.842468
3.602000	787.633503
3.603000	786.675141
3.604000	788.102969
3.605000	789.055799
3.606000	789.061316
3.607000	788.899520
3.608000	789.527585
3.609000	789.204177
3.610000	791.432250
3.611000	790.798306
3.612000	792.544523
3.613000	791.114177
3.614000	792.856219
3.615000	793.170583
3.616000	793.331533
3.617000	792.210382
3.618000	793.811038
3.619000	793.960277
3.620000	793.803501
3.621000	794.272636
3.622000	794.113011
3.623000	794.910423
3.624000	794.112514
3.625000	794.262581
3.626000	795.376030
3.627000	793.785579
3.628000	793.778207
3.629000	792.824036
3.630000	794.098601
3.631000	793.134225
3.632000	792.179540
3.633000	792.974103
3.634000	793.131873
3.635000	793.127864
3.636000	791.370930
3.637000	791.847254
3.638000	791.204115
3.639000	789.931042
3.640000	789.450528
3.641000	788.647931
3.642000	789.292924
3.643000	789.604454
3.644000	790.247261
3.645000	788.964994
3.646000	789.285221
3.647000	788.010988
3.648000	789.605796
3.649000	790.242589
3.650000	789.762571
3.651000	789.601621
3.652000	789.601455
3.653000	788.170281
3.654000	789.127136
3.655000	787.534166
3.656000	788.485836
3.657000	789.605149
3.658000	788.493705
3.659000	787.855420
3.660000	788.010175
3.661000	787.373911
3.662000	786.892220
3.663000	786.578519
3.664000	785.942902
3.665000	785.778937
3.666000	785.943746
3.667000	784.348441
3.668000	785.785313
3.669000	785.464076
3.670000	783.240525
3.671000	782.760341
3.672000	783.717030
3.673000	782.916785
3.674000	782.756000
3.675000	782.444817
3.676000	780.053442
3.677000	780.209041
3.678000	779.417840
3.679000	778.456976
3.680000	779.102798
3.681000	778.305070
3.682000	777.029661
3.683000	775.596648
3.684000	776.712614
3.685000	775.440054
3.686000	775.120158
3.687000	774.647345
3.688000	772.735822
3.689000	773.691169
3.690000	773.534244
3.691000	772.412761
3.692000	770.500906
3.693000	770.824993
3.694000	770.983607
3.695000	769.394828
3.696000	768.916831
3.697000	767.324872
3.698000	766.847040
3.699000	765.570124
3.700000	764.298739
3.701000	763.498163
3.702000	763.501178
3.703000	762.869420
3.704000	762.230638
3.705000	760.802809
3.706000	759.843287
3.707000	759.047398
3.708000	759.691215
3.709000	756.179533
3.710000	756.822008
3.711000	755.227547
3.712000	755.392357
3.713000	753.798559
3.714000	753.317712
3.715000	752.684447
3.716000	751.576183
3.717000	751.891076
3.718000	750.776285
3.719000	749.503559
3.720000	748.393291
3.721000	747.907260
3.722000	747.756017
3.723000	745.841313
3.724000	745.043916
3.725000	744.569597
3.726000	744.887323
3.727000	743.453812
3.728000	744.097795
3.729000	741.705590
3.730000	741.704762
3.731000	739.950511
3.732000	739.320260
3.733000	739.319929
3.734000	739.316417
3.735000	737.567185
3.736000	737.407411
3.737000	736.769292
3.738000	736.613195
3.739000	734.860120
3.740000	734.704189
3.741000	734.385966
3.742000	734.383133
3.743000	733.271357
3.744000	733.112080
3.745000	731.682744
3.746000	730.887021
3.747000	730.882002
3.748000	730.404502
3.749000	731.365547
3.750000	729.297248
3.751000	729.606608
3.752000	729.774764
3.753000	728.014152
3.754000	728.654623
3.755000	726.743431
3.756000	727.699954
3.757000	727.382228
3.758000	727.705486
3.759000	726.267785
3.760000	726.431750
3.761000	727.548048
3.762000	725.788446
3.763000	725.312785
3.764000	724.995059
3.765000	726.430424
3.766000	726.749989
3.767000	727.226495
3.768000	725.474248
3.769000	725.315468
3.770000	724.198342
3.771000	724.670160
3.772000	724.990900
3.773000	726.427591
3.774000	725.789969
3.775000	725.790135
3.776000	726.428933
3.777000	725.788130
3.778000	724.672677
3.779000	726.582362
3.780000	725.948086
3.781000	725.786292
3.782000	725.625176
3.783000	725.305445
3.784000	726.105193
3.785000	726.103354
3.786000	726.585874
3.787000	728.017893
3.788000	726.901429
3.789000	728.649319
3.790000	728.649485
3.791000	728.967542
3.792000	729.444545
3.793000	729.285765
3.794000	729.444379
3.795000	730.396878
3.796000	729.601818
3.797000	730.083840
3.798000	731.193942
3.799000	730.557331
3.800000	732.146275
3.801000	731.825369
3.802000	732.784228
3.803000	732.941501
3.804000	732.782390
3.805000	734.218749
3.806000	733.733878
3.807000	734.850341
3.808000	735.171082
3.809000	735.325505
3.810000	735.168233
3.811000	736.442300
3.812000	736.122902
3.813000	736.757674
3.814000	737.080419
3.815000	738.505067
3.816000	737.869118
3.817000	738.825129
3.818000	738.664676
3.819000	739.774447
3.820000	741.212148
3.821000	741.210475
3.822000	741.530039
3.823000	741.363723
3.824000	743.597991
3.825000	744.232101
3.826000	743.917556
3.827000	743.113286
3.828000	745.830918
3.829000	745.029663
3.830000	746.462510
3.831000	747.256229
3.832000	747.417511
3.833000	748.367673
3.834000	748.201688
3.835000	749.961802
3.836000	750.601595
3.837000	749.800521
3.838000	752.670059
3.839000	751.711034
3.840000	751.870643
3.841000	752.982087
3.842000	753.939273
3.843000	754.262018
3.844000	755.691685
3.845000	754.421627
3.846000	754.087999
3.847000	757.922939
3.848000	757.436561
3.849000	756.166336
3.850000	757.443253
3.851000	757.916744
3.852000	758.712633
3.853000	759.348747
3.854000	759.664966
3.855000	761.099652
3.856000	760.460523
3.857000	762.054999
3.858000	761.412690
3.859000	761.420890
3.860000	761.256412
3.861000	762.683411
3.862000	762.527812
3.863000	762.847376
3.864000	764.755388
3.865000	765.075615
3.866000	765.075118
3.867000	765.711067
3.868000	764.752042
3.869000	763.479300
3.870000	766.668419
3.871000	766.027451
3.872000	767.140900
3.873000	766.507634
3.874000	767.306041
3.875000	766.979452
3.876000	767.621249
3.877000	766.818999
3.878000	767.617405
3.879000	767.292821
3.880000	768.894653
3.881000	768.576099
3.882000	767.938477
3.883000	768.890313
3.884000	768.095253
3.885000	768.253867
3.886000	767.773518
3.887000	768.897518
3.888000	769.214067
3.889000	767.298867
3.890000	768.576959
3.891000	768.407643
3.892000	767.937664
3.893000	768.253717
3.894000	768.576461
3.895000	769.052967
3.896000	766.821879
3.897000	766.816529
3.898000	767.461174
3.899000	766.816197
3.900000	767.937183
3.901000	766.664954
3.902000	765.703924
3.903000	767.145816
3.904000	765.706608
3.905000	764.911547
3.906000	765.074518
3.907000	764.910553
3.908000	764.593837
3.909000	765.072679
3.910000	763.796607
3.911000	764.279805
3.912000	765.071851
3.913000	764.596023
3.914000	763.000718
3.915000	763.481911
3.916000	763.642199
3.917000	762.845134
3.918000	762.692715
3.919000	762.844471
3.920000	762.052757
3.921000	761.893148
3.922000	761.575589
3.923000	759.979787
3.924000	761.891325
3.925000	759.663915
3.926000	760.615253
3.927000	760.141928
3.928000	759.504140
3.929000	758.706413
3.930000	759.188104
3.931000	758.071309
3.932000	757.592301
3.933000	756.797075
3.934000	756.640979
3.935000	756.319409
3.936000	756.638477
3.937000	756.480210
3.938000	756.320933
3.939000	755.045026
3.940000	754.250297
3.941000	755.044695
3.942000	754.570375
3.943000	753.773476
3.944000	754.410601
3.945000	754.570225
3.946000	753.301342
3.947000	752.506614
3.948000	751.221845
3.949000	751.233391
3.950000	751.073119
3.951000	750.752047
3.952000	750.751716
3.953000	750.113431
3.954000	751.550635
3.955000	750.275391
3.956000	751.233422
3.957000	749.479005
3.958000	748.688799
3.959000	750.113960
3.960000	749.959867
3.961000	750.748401
3.962000	748.525678
3.963000	748.993984
3.964000	749.160135
3.965000	748.679620
3.966000	748.364246
3.967000	747.893605
3.968000	748.682982
3.969000	747.569865
3.970000	748.205648
3.971000	748.044698
3.972000	748.682154
3.973000	747.883582
3.974000	748.048723
3.975000	748.997709
3.976000	748.530082
3.977000	747.092381
3.978000	749.005925
3.979000	748.208015
3.980000	749.319128
3.981000	748.684521
3.982000	748.359771
3.983000	748.362620
3.984000	748.359109
3.985000	748.842307
3.986000	748.363465
3.987000	749.002428
3.988000	749.629348
3.989000	750.108522
3.990000	748.992058
3.991000	750.268312
3.992000	751.225830
3.993000	750.276346
3.994000	751.382108
3.995000	750.431117
3.996000	750.749340
3.997000	749.630706
3.998000	752.026272
3.999000	751.062890
