BioWare Version 5.3.0.7 Export
Device:	4827095 9260AA6
Samples (#):	4000
Rate (Hz):	1000.000000
Contact period start (sample #):	0
Contact period end (sample #):	3999
Contact period start time (s):	0.000000
Contact period end time (s):	3.999000
First sample time (s):	0.000000
Normalized force (N):	2.549780
Normalized length (m):	1.000000
File Information
Date	May 25, 2017  15:47:06
Name	
ID	
Classification	
Description	
abs time (s)	Fz
	N
0.000000	775.799912
0.001000	774.365723
0.002000	775.322909
0.003000	773.720233
0.004000	775.005515
0.005000	773.725584
0.006000	774.364216
0.007000	775.165803
0.008000	775.169315
0.009000	774.525000
0.010000	774.049671
0.011000	774.370577
0.012000	774.051012
0.013000	774.688634
0.014000	773.892232
0.015000	773.888886
0.016000	775.649166
0.017000	774.051178
0.018000	775.326421
0.019000	775.478509
0.020000	774.844896
0.021000	775.493235
0.022000	776.279764
0.023000	775.170656
0.024000	775.642640
0.025000	773.892232
0.026000	774.524172
0.027000	776.759103
0.028000	775.326090
0.029000	774.206280
0.030000	775.004687
0.031000	775.170325
0.032000	775.482021
0.033000	775.642474
0.034000	776.280096
0.035000	776.286954
0.036000	775.487885
0.037000	775.327763
0.038000	774.055866
0.039000	775.960200
0.040000	774.524669
0.041000	775.482352
0.042000	774.853775
0.043000	774.688302
0.044000	773.727770
0.045000	774.689810
0.046000	774.370245
0.047000	775.328607
0.048000	775.807615
0.049000	775.643816
0.050000	774.687971
0.051000	775.804434
0.052000	774.688302
0.053000	774.211134
0.054000	775.164642
0.055000	775.012389
0.056000	774.689976
0.057000	775.012223
0.058000	775.325593
0.059000	774.367909
0.060000	774.371421
0.061000	774.689810
0.062000	774.531361
0.063000	775.167823
0.064000	775.966726
0.065000	774.689644
0.066000	775.647162
0.067000	775.809288
0.068000	776.280940
0.069000	774.209129
0.070000	776.127014
0.071000	775.331788
0.072000	775.162969
0.073000	774.528362
0.074000	773.733634
0.075000	775.487553
0.076000	775.649679
0.077000	775.003692
0.078000	774.525513
0.079000	775.326271
0.080000	775.810298
0.081000	775.330115
0.082000	775.805445
0.083000	775.648172
0.084000	776.603851
0.085000	775.327945
0.086000	776.441062
0.087000	776.125009
0.088000	775.809122
0.089000	777.239800
0.090000	775.968747
0.091000	775.811640
0.092000	776.125854
0.093000	777.082030
0.094000	777.243990
0.095000	776.290316
0.096000	775.647343
0.097000	777.404941
0.098000	777.242483
0.099000	776.445750
0.100000	776.767319
0.101000	776.135892
0.102000	776.765314
0.103000	776.607544
0.104000	775.970088
0.105000	777.566901
0.106000	776.927275
0.107000	775.972606
0.108000	775.655377
0.109000	776.457809
0.110000	776.451945
0.111000	777.086055
0.112000	776.612232
0.113000	777.095596
0.114000	775.821860
0.115000	776.936319
0.116000	775.023619
0.117000	776.298697
0.118000	775.189092
0.119000	775.660910
0.120000	776.456136
0.121000	775.344194
0.122000	775.663924
0.123000	775.819855
0.124000	775.989006
0.125000	774.714109
0.126000	774.865850
0.127000	776.618940
0.128000	775.188429
0.129000	776.148464
0.130000	776.465511
0.131000	776.947368
0.132000	775.671130
0.133000	774.873221
0.134000	775.507331
0.135000	775.035347
0.136000	776.307244
0.137000	776.473048
0.138000	776.152158
0.139000	776.631662
0.140000	776.947715
0.141000	775.673979
0.142000	775.672803
0.143000	775.835939
0.144000	776.793126
0.145000	777.111846
0.146000	775.681847
0.147000	775.201498
0.148000	777.432089
0.149000	775.842300
0.150000	776.159860
0.151000	776.476410
0.152000	776.796306
0.153000	776.322318
0.154000	776.961613
0.155000	776.000915
0.156000	775.844139
0.157000	777.761858
0.158000	777.440123
0.159000	776.644566
0.160000	777.759356
0.161000	777.924829
0.162000	778.085447
0.163000	777.124418
0.164000	776.485289
0.165000	777.123407
0.166000	777.129934
0.167000	776.169070
0.168000	776.651424
0.169000	776.486630
0.170000	778.722738
0.171000	777.926170
0.172000	777.127598
0.173000	776.486796
0.174000	777.765054
0.175000	777.602928
0.176000	776.971833
0.177000	776.812721
0.178000	775.699107
0.179000	776.655449
0.180000	776.648922
0.181000	776.012642
0.182000	776.818917
0.183000	775.224606
0.184000	775.059133
0.185000	775.228631
0.186000	774.904213
0.187000	776.175778
0.188000	774.908569
0.189000	776.976024
0.190000	775.387411
0.191000	775.385240
0.192000	774.906730
0.193000	775.546522
0.194000	774.907393
0.195000	775.066339
0.196000	774.106816
0.197000	775.229641
0.198000	775.065510
0.199000	773.956071
0.200000	775.391933
0.201000	774.434747
0.202000	774.273796
0.203000	774.437761
0.204000	773.474214
0.205000	776.183647
0.206000	774.270947
0.207000	774.596376
0.208000	775.550547
0.209000	775.709659
0.210000	774.113177
0.211000	775.547201
0.212000	775.229807
0.213000	775.706147
0.214000	774.909745
0.215000	775.867097
0.216000	776.824449
0.217000	774.273796
0.218000	775.870112
0.219000	776.350461
0.220000	777.142340
0.221000	776.825956
0.222000	776.663167
0.223000	777.298106
0.224000	776.345276
0.225000	777.459900
0.226000	776.345441
0.227000	776.668849
0.228000	776.983395
0.229000	776.669694
0.230000	779.049855
0.231000	778.579544
0.232000	778.578203
0.233000	778.738490
0.234000	779.215824
0.235000	778.738490
0.236000	780.805447
0.237000	779.217166
0.238000	779.532043
0.239000	779.854788
0.240000	780.169665
0.241000	779.218673
0.242000	779.856461
0.243000	779.692164
0.244000	779.536731
0.245000	780.813481
0.246000	779.852617
0.247000	780.806789
0.248000	780.970754
0.249000	779.541253
0.250000	780.336479
0.251000	779.058220
0.252000	780.332967
0.253000	778.897270
0.254000	778.743509
0.255000	778.901792
0.256000	778.425286
0.257000	779.220181
0.258000	778.421609
0.259000	778.584398
0.260000	778.587081
0.261000	779.226542
0.262000	779.542594
0.263000	779.385985
0.264000	778.103386
0.265000	780.337489
0.266000	778.111751
0.267000	778.269024
0.268000	777.633738
0.269000	777.952640
0.270000	777.791855
0.271000	778.270200
0.272000	777.473632
0.273000	776.357666
0.274000	776.359174
0.275000	776.996464
0.276000	776.520803
0.277000	778.276229
0.278000	777.640281
0.279000	776.365534
0.280000	776.683426
0.281000	775.091467
0.282000	776.199731
0.283000	775.089960
0.284000	776.686109
0.285000	775.889376
0.286000	775.093803
0.287000	775.084277
0.288000	775.256774
0.289000	775.254935
0.290000	775.251257
0.291000	773.026861
0.292000	773.504527
0.293000	774.460040
0.294000	773.983203
0.295000	773.663307
0.296000	773.182792
0.297000	774.618489
0.298000	773.504196
0.299000	772.867750
0.300000	773.505869
0.301000	772.551366
0.302000	772.398947
0.303000	772.708804
0.304000	771.915417
0.305000	772.872438
0.306000	771.918929
0.307000	771.912071
0.308000	772.551200
0.309000	772.236489
0.310000	773.033057
0.311000	771.278640
0.312000	770.167361
0.313000	771.440932
0.314000	771.123372
0.315000	771.283328
0.316000	770.810334
0.317000	771.925969
0.318000	771.764174
0.319000	770.649052
0.320000	770.329488
0.321000	771.282318
0.322000	770.167361
0.323000	770.970456
0.324000	770.647379
0.325000	770.807832
0.326000	770.808329
0.327000	771.447127
0.328000	771.611258
0.329000	771.289689
0.330000	770.966446
0.331000	770.968285
0.332000	771.770369
0.333000	772.407660
0.334000	770.814690
0.335000	771.288347
0.336000	771.927476
0.337000	770.338019
0.338000	770.811013
0.339000	772.246875
0.340000	771.610595
0.341000	772.405489
0.342000	771.603389
0.343000	771.132416
0.344000	773.357143
0.345000	772.242519
0.346000	772.242021
0.347000	773.675200
0.348000	773.358816
0.349000	773.674869
0.350000	773.206397
0.351000	775.115916
0.352000	773.038920
0.353000	772.724707
0.354000	774.158067
0.355000	774.475777
0.356000	774.473607
0.357000	774.635236
0.358000	775.434984
0.359000	774.320525
0.360000	775.435647
0.361000	775.584885
0.362000	775.586724
0.363000	775.911142
0.364000	775.426105
0.365000	775.272857
0.366000	776.065234
0.367000	776.548598
0.368000	776.702525
0.369000	776.704198
0.370000	777.976584
0.371000	776.861968
0.372000	777.334283
0.373000	778.293473
0.374000	777.017733
0.375000	777.017898
0.376000	777.337463
0.377000	778.926234
0.378000	778.455600
0.379000	778.291627
0.380000	778.929249
0.381000	778.925744
0.382000	779.722138
0.383000	779.248821
0.384000	779.246974
0.385000	778.612707
0.386000	779.724143
0.387000	781.001060
0.388000	779.245467
0.389000	781.002733
0.390000	780.208848
0.391000	780.361433
0.392000	780.838602
0.393000	779.404744
0.394000	780.524388
0.395000	779.883254
0.396000	779.563690
0.397000	779.887942
0.398000	780.365277
0.399000	779.403071
0.400000	779.722967
0.401000	781.316268
0.402000	779.725982
0.403000	780.199473
0.404000	778.288281
0.405000	778.610347
0.406000	779.250321
0.407000	779.884928
0.408000	778.929580
0.409000	778.767288
0.410000	779.408422
0.411000	779.886435
0.412000	779.252657
0.413000	778.614372
0.414000	777.973404
0.415000	778.450573
0.416000	778.453587
0.417000	778.607679
0.418000	779.091541
0.419000	777.496401
0.420000	778.134520
0.421000	778.447226
0.422000	778.607679
0.423000	778.448734
0.424000	778.451914
0.425000	778.135696
0.426000	777.337124
0.427000	779.406749
0.428000	777.973238
0.429000	778.612699
0.430000	779.094224
0.431000	778.774825
0.432000	777.817804
0.433000	779.248813
0.434000	778.296978
0.435000	778.134354
0.436000	778.452080
0.437000	779.570548
0.438000	778.773649
0.439000	778.932595
0.440000	777.816960
0.441000	779.415114
0.442000	777.819809
0.443000	778.610181
0.444000	779.092038
0.445000	778.133013
0.446000	780.369964
0.447000	779.893293
0.448000	779.412944
0.449000	780.688187
0.450000	779.413275
0.451000	779.406417
0.452000	780.367778
0.453000	778.931419
0.454000	778.290617
0.455000	779.726645
0.456000	780.210009
0.457000	779.572553
0.458000	779.732840
0.459000	778.452411
0.460000	779.252325
0.461000	780.044702
0.462000	779.409929
0.463000	779.737694
0.464000	778.932926
0.465000	779.731001
0.466000	778.617884
0.467000	780.047717
0.468000	780.530915
0.469000	778.935941
0.470000	779.571392
0.471000	779.092203
0.472000	779.573231
0.473000	779.095384
0.474000	777.982945
0.475000	780.207673
0.476000	778.296978
0.477000	778.776498
0.478000	778.780010
0.479000	779.091541
0.480000	778.461621
0.481000	779.103087
0.482000	779.738704
0.483000	780.533764
0.484000	778.938459
0.485000	777.507947
0.486000	779.898312
0.487000	779.735192
0.488000	779.412778
0.489000	778.142057
0.490000	778.149925
0.491000	778.143564
0.492000	778.948000
0.493000	778.465299
0.494000	776.549088
0.495000	778.304680
0.496000	776.873009
0.497000	777.030613
0.498000	777.670405
0.499000	777.671249
0.500000	777.669742
0.501000	776.869662
0.502000	778.149759
0.503000	777.033959
0.504000	775.438654
0.505000	776.874184
0.506000	777.195422
0.507000	776.875858
0.508000	777.512138
0.509000	776.869828
0.510000	776.876023
0.511000	776.080797
0.512000	776.717078
0.513000	776.240240
0.514000	774.803881
0.515000	775.921007
0.516000	776.713566
0.517000	775.120431
0.518000	775.125284
0.519000	775.767760
0.520000	773.693100
0.521000	774.966670
0.522000	775.443010
0.523000	775.287576
0.524000	774.327044
0.525000	775.284396
0.526000	774.329727
0.527000	774.171278
0.528000	774.492350
0.529000	774.487165
0.530000	774.169771
0.531000	774.015513
0.532000	775.443341
0.533000	773.848533
0.534000	774.810242
0.535000	773.689422
0.536000	774.331566
0.537000	774.013840
0.538000	774.170103
0.539000	774.644935
0.540000	773.534998
0.541000	774.014006
0.542000	774.179478
0.543000	774.169274
0.544000	774.814930
0.545000	773.379565
0.546000	774.024557
0.547000	773.697456
0.548000	773.853221
0.549000	774.177805
0.550000	774.174127
0.551000	774.330058
0.552000	773.853221
0.553000	773.218283
0.554000	774.495862
0.555000	774.337927
0.556000	774.655984
0.557000	774.815095
0.558000	774.816769
0.559000	775.771950
0.560000	774.332907
0.561000	774.178981
0.562000	774.973875
0.563000	774.500384
0.564000	774.341107
0.565000	774.972368
0.566000	774.976724
0.567000	775.292430
0.568000	774.498711
0.569000	776.410235
0.570000	774.654145
0.571000	774.979723
0.572000	776.407402
0.573000	775.136499
0.574000	775.287079
0.575000	776.406557
0.576000	775.297631
0.577000	776.566679
0.578000	775.295113
0.579000	775.453893
0.580000	775.453893
0.581000	776.411245
0.582000	776.096368
0.583000	776.252631
0.584000	775.773623
0.585000	776.888248
0.586000	775.934574
0.587000	776.889590
0.588000	777.364754
0.589000	778.801279
0.590000	777.838908
0.591000	778.158804
0.592000	775.771950
0.593000	778.009234
0.594000	777.686323
0.595000	778.161487
0.596000	777.526201
0.597000	776.413250
0.598000	777.526880
0.599000	777.687665
0.600000	778.004546
0.601000	777.048370
0.602000	778.802289
0.603000	777.529050
0.604000	777.851464
0.605000	778.644188
0.606000	777.371280
0.607000	777.841922
0.608000	778.004380
0.609000	777.530723
0.610000	777.207315
0.611000	778.641173
0.612000	777.046531
0.613000	777.845103
0.614000	777.363081
0.615000	778.802289
0.616000	777.050208
0.617000	778.011917
0.618000	776.892770
0.619000	778.956050
0.620000	777.526714
0.621000	776.252978
0.622000	776.889092
0.623000	777.203472
0.624000	776.730147
0.625000	777.367768
0.626000	777.044858
0.627000	777.047359
0.628000	776.569362
0.629000	777.527377
0.630000	776.731654
0.631000	776.413597
0.632000	775.930399
0.633000	777.687333
0.634000	776.889258
0.635000	776.725459
0.636000	777.371115
0.637000	778.009581
0.638000	777.523534
0.639000	778.156302
0.640000	777.848118
0.641000	776.404221
0.642000	777.205808
0.643000	777.043350
0.644000	776.092691
0.645000	777.366427
0.646000	775.453064
0.647000	776.411924
0.648000	775.769448
0.649000	776.565850
0.650000	776.570870
0.651000	775.454737
0.652000	776.887585
0.653000	775.453727
0.654000	775.613352
0.655000	777.207813
0.656000	775.610337
0.657000	777.045189
0.658000	776.410416
0.659000	774.974886
0.660000	775.771122
0.661000	775.133168
0.662000	775.612342
0.663000	775.130319
0.664000	774.178815
0.665000	775.607654
0.666000	776.885746
0.667000	774.010841
0.668000	774.654311
0.669000	774.814101
0.670000	773.063362
0.671000	775.291435
0.672000	774.013343
0.673000	775.291435
0.674000	774.329396
0.675000	774.650467
0.676000	774.491522
0.677000	775.291601
0.678000	775.922530
0.679000	775.766931
0.680000	776.404718
0.681000	777.043848
0.682000	777.360232
0.683000	776.725459
0.684000	776.249963
0.685000	775.768107
0.686000	777.680128
0.687000	776.724117
0.688000	776.568352
0.689000	777.361573
0.690000	776.570191
0.691000	776.720937
0.692000	777.839073
0.693000	777.202959
0.694000	776.566845
0.695000	777.517338
0.696000	776.715752
0.697000	776.879220
0.698000	777.997688
0.699000	776.724283
0.700000	777.202462
0.701000	776.722941
0.702000	777.204466
0.703000	775.604473
0.704000	777.517836
0.705000	778.636138
0.706000	775.449537
0.707000	776.406226
0.708000	777.040501
0.709000	776.244597
0.710000	777.041843
0.711000	777.519509
0.712000	777.522855
0.713000	776.080135
0.714000	776.564327
0.715000	777.201286
0.716000	775.764413
0.717000	776.239246
0.718000	776.403211
0.719000	775.603463
0.720000	776.090173
0.721000	776.249450
0.722000	774.490512
0.723000	775.446356
0.724000	774.973875
0.725000	774.969519
0.726000	775.446190
0.727000	775.127968
0.728000	774.655984
0.729000	775.291767
0.730000	775.287079
0.731000	774.329561
0.732000	775.126626
0.733000	773.854397
0.734000	774.006982
0.735000	774.967183
0.736000	774.170947
0.737000	774.333405
0.738000	774.965841
0.739000	775.133318
0.740000	774.654642
0.741000	774.326878
0.742000	773.853553
0.743000	774.326878
0.744000	774.329893
0.745000	775.605468
0.746000	774.807393
0.747000	775.445678
0.748000	775.760057
0.749000	777.512816
0.750000	775.610984
0.751000	775.441668
0.752000	775.602784
0.753000	775.125616
0.754000	775.602619
0.755000	775.116074
0.756000	777.349846
0.757000	776.074437
0.758000	775.278366
0.759000	776.075265
0.760000	776.240075
0.761000	774.957129
0.762000	776.715404
0.763000	775.440327
0.764000	775.437146
0.765000	776.398176
0.766000	776.073592
0.767000	777.350840
0.768000	777.510796
0.769000	776.551605
0.770000	777.033793
0.771000	775.593077
0.772000	776.548590
0.773000	777.824165
0.774000	777.345655
0.775000	777.981438
0.776000	777.184871
0.777000	777.030281
0.778000	778.303007
0.779000	776.386961
0.780000	778.143564
0.781000	777.984784
0.782000	778.301168
0.783000	777.340636
0.784000	779.414451
0.785000	780.209677
0.786000	777.659024
0.787000	778.304349
0.788000	778.142388
0.789000	778.932098
0.790000	779.096228
0.791000	778.137535
0.792000	779.099077
0.793000	779.101082
0.794000	778.617552
0.795000	778.458772
0.796000	778.778005
0.797000	778.458607
0.798000	778.773649
0.799000	777.496567
0.800000	778.300837
0.801000	778.293466
0.802000	779.578085
0.803000	778.302676
0.804000	779.419636
0.805000	777.820985
0.806000	780.053580
0.807000	779.099906
0.808000	777.819312
0.809000	778.781517
0.810000	778.935610
0.811000	778.775156
0.812000	778.460445
0.813000	779.730835
0.814000	780.376657
0.815000	779.410608
0.816000	780.368623
0.817000	779.577075
0.818000	779.727821
0.819000	779.575236
0.820000	778.616211
0.821000	779.409432
0.822000	780.047551
0.823000	780.208170
0.824000	781.481574
0.825000	780.209843
0.826000	780.692031
0.827000	779.409598
0.828000	779.409929
0.829000	780.683500
0.830000	780.364101
0.831000	781.006742
0.832000	781.003064
0.833000	781.325643
0.834000	780.048048
0.835000	781.003727
0.836000	780.845957
0.837000	780.205155
0.838000	781.160834
0.839000	780.526393
0.840000	780.525217
0.841000	780.841435
0.842000	780.999039
0.843000	779.247637
0.844000	780.046375
0.845000	779.410592
0.846000	778.769458
0.847000	778.926897
0.848000	778.769790
0.849000	777.174982
0.850000	778.605991
0.851000	777.495722
0.852000	776.538702
0.853000	776.537526
0.854000	778.133344
0.855000	777.971549
0.856000	776.536863
0.857000	777.651985
0.858000	775.580174
0.859000	775.585525
0.860000	775.262117
0.861000	774.631353
0.862000	774.952259
0.863000	774.468067
0.864000	774.469061
0.865000	775.108190
0.866000	775.108025
0.867000	773.675674
0.868000	773.032370
0.869000	773.666811
0.870000	773.512885
0.871000	772.396753
0.872000	773.350925
0.873000	772.552684
0.874000	771.597005
0.875000	771.755619
0.876000	771.755619
0.877000	773.354436
0.878000	771.121675
0.879000	769.690335
0.880000	770.799262
0.881000	770.162816
0.882000	770.801945
0.883000	769.207137
0.884000	769.844924
0.885000	770.803784
0.886000	769.526701
0.887000	770.158807
0.888000	769.687155
0.889000	769.049864
0.890000	769.526536
0.891000	769.044845
0.892000	769.206805
0.893000	769.834886
0.894000	769.045342
0.895000	768.560139
0.896000	768.883895
0.897000	769.520340
0.898000	768.407223
0.899000	770.480210
0.900000	770.000855
0.901000	770.478355
0.902000	767.607641
0.903000	768.885055
0.904000	769.525360
0.905000	767.929707
0.906000	768.886396
0.907000	769.684637
0.908000	769.994329
0.909000	768.246091
0.910000	768.727451
0.911000	770.156952
0.912000	770.160133
0.913000	769.200097
0.914000	769.361892
0.915000	769.836551
0.916000	769.837056
0.917000	770.321249
0.918000	770.157615
0.919000	769.518659
0.920000	771.267386
0.921000	771.108606
0.922000	770.790549
0.923000	772.226411
0.924000	770.944641
0.925000	771.903169
0.926000	771.267883
0.927000	771.905844
0.928000	771.904842
0.929000	773.660766
0.930000	772.542961
0.931000	773.657917
0.932000	771.903998
0.933000	772.059439
0.934000	771.902490
0.935000	771.906176
0.936000	773.817360
0.937000	773.021645
0.938000	773.811844
0.939000	773.973125
0.940000	773.813848
0.941000	775.085580
0.942000	774.607401
0.943000	773.335346
0.944000	774.126886
0.945000	775.243515
0.946000	775.883986
0.947000	774.290014
0.948000	776.679543
0.949000	775.402627
0.950000	776.675021
0.951000	777.156712
0.952000	775.555046
0.953000	775.879132
0.954000	775.880127
0.955000	777.955450
0.956000	776.035229
0.957000	776.201033
0.958000	776.520937
0.959000	776.830289
0.960000	776.035734
0.961000	776.676529
0.962000	778.585882
0.963000	777.311143
0.964000	778.263634
0.965000	777.310638
0.966000	777.469916
0.967000	777.151858
0.968000	777.947084
0.969000	777.948599
0.970000	777.466901
0.971000	777.467579
0.972000	779.540053
0.973000	778.742144
0.974000	778.418902
0.975000	777.629366
0.976000	777.950107
0.977000	777.945411
0.978000	778.425594
0.979000	777.786307
0.980000	777.786473
0.981000	777.786805
0.982000	778.745490
0.983000	778.266822
0.984000	779.066736
0.985000	779.381613
0.986000	779.063216
0.987000	778.906283
0.988000	778.419407
0.989000	780.019069
0.990000	778.899590
0.991000	777.788312
0.992000	779.216306
0.993000	778.265315
0.994000	778.901263
0.995000	779.062372
0.996000	779.536873
0.997000	778.263807
0.998000	777.939887
0.999000	778.422587
1.000000	779.385125
1.001000	778.739303
1.002000	778.740968
1.003000	778.740810
1.004000	779.224671
1.005000	778.900088
1.006000	778.105028
1.007000	779.059199
1.008000	778.900253
1.009000	778.896402
1.010000	778.426431
1.011000	779.378764
1.012000	779.060706
1.013000	777.144329
1.014000	779.698991
1.015000	779.216637
1.016000	778.264139
1.017000	777.783790
1.018000	780.012700
1.019000	778.107198
1.020000	779.536036
1.021000	779.852910
1.022000	778.908453
1.023000	778.422240
1.024000	778.422240
1.025000	778.735112
1.026000	779.699157
1.027000	780.644624
1.028000	778.258109
1.029000	777.781604
1.030000	779.854583
1.031000	779.220315
1.032000	777.940550
1.033000	781.609173
1.034000	780.176160
1.035000	780.329242
1.036000	780.171803
1.037000	779.371890
1.038000	779.534182
1.039000	780.330749
1.040000	780.806245
1.041000	781.447213
1.042000	780.486680
1.043000	780.170462
1.044000	779.848048
1.045000	780.810088
1.046000	780.483665
1.047000	780.801723
1.048000	780.487177
1.049000	780.642943
1.050000	780.649635
1.051000	780.329739
1.052000	781.123789
1.053000	780.328397
1.054000	781.280896
1.055000	781.925210
1.056000	781.603807
1.057000	782.077960
1.058000	781.760235
1.059000	781.762918
1.060000	781.440173
1.061000	780.955136
1.062000	780.796522
1.063000	781.117594
1.064000	781.921019
1.065000	782.078789
1.066000	780.800878
1.067000	782.396183
1.068000	783.191575
1.069000	781.277037
1.070000	782.548437
1.071000	782.390154
1.072000	782.233726
1.073000	782.391827
1.074000	783.186556
1.075000	781.431294
1.076000	781.914990
1.077000	782.550773
1.078000	783.662043
1.079000	782.236559
1.080000	782.868830
1.081000	783.185545
1.082000	782.867654
1.083000	783.506783
1.084000	782.549763
1.085000	783.497407
1.086000	783.823167
1.087000	783.341642
1.088000	783.181189
1.089000	783.184204
1.090000	783.976241
1.091000	783.338296
1.092000	783.657016
1.093000	784.295806
1.094000	783.979595
1.095000	784.610848
1.096000	783.018053
1.097000	782.857434
1.098000	784.452400
1.099000	783.814454
1.100000	784.457096
1.101000	784.607163
1.102000	784.131004
1.103000	783.967197
1.104000	784.449724
1.105000	786.039505
1.106000	785.244777
1.107000	785.414100
1.108000	785.720943
1.109000	783.647293
1.110000	786.832048
1.111000	785.879715
1.112000	786.197938
1.113000	786.512152
1.114000	786.194268
1.115000	786.037327
1.116000	786.829538
1.117000	786.669922
1.118000	785.721606
1.119000	788.424007
1.120000	786.669251
1.121000	787.947675
1.122000	787.467326
1.123000	787.149600
1.124000	788.106786
1.125000	787.459284
1.126000	787.308546
1.127000	786.669748
1.128000	787.141897
1.129000	788.264722
1.130000	788.589140
1.131000	788.897656
1.132000	788.100922
1.133000	788.100757
1.134000	788.259868
1.135000	788.576252
1.136000	789.535277
1.137000	789.368132
1.138000	789.856515
1.139000	789.058772
1.140000	789.057430
1.141000	790.010441
1.142000	790.493632
1.143000	790.171226
1.144000	789.530590
1.145000	790.171723
1.146000	790.807333
1.147000	788.897987
1.148000	790.488613
1.149000	791.126897
1.150000	790.653083
1.151000	790.812360
1.152000	790.328988
1.153000	790.491288
1.154000	789.855339
1.155000	790.501326
1.156000	790.177256
1.157000	789.854676
1.158000	790.334015
1.159000	789.539965
1.160000	790.017134
1.161000	790.337709
1.162000	789.064801
1.163000	789.226762
1.164000	790.656090
1.165000	790.177256
1.166000	790.018136
1.167000	789.380854
1.168000	789.222745
1.169000	788.591657
1.170000	788.431370
1.171000	789.229776
1.172000	788.439736
1.173000	788.113147
1.174000	788.118664
1.175000	788.114986
1.176000	787.476867
1.177000	788.121347
1.178000	786.687158
1.179000	786.683646
1.180000	786.527202
1.181000	785.092018
1.182000	785.408734
1.183000	785.406564
1.184000	785.732821
1.185000	786.849450
1.186000	785.093526
1.187000	785.409744
1.188000	785.097038
1.189000	783.982579
1.190000	784.141690
1.191000	784.939434
1.192000	783.022046
1.193000	782.701819
1.194000	783.659502
1.195000	782.703823
1.196000	781.904075
1.197000	782.068040
1.198000	782.547892
1.199000	782.066367
1.200000	782.067875
1.201000	782.387273
1.202000	781.595891
1.203000	781.272649
1.204000	779.836621
1.205000	781.274985
1.206000	779.835445
1.207000	780.792465
1.208000	779.997903
1.209000	780.475237
1.210000	779.519724
1.211000	778.726171
1.212000	779.038033
1.213000	779.678835
1.214000	779.200822
1.215000	779.679001
1.216000	779.037867
1.217000	778.884272
1.218000	779.206852
1.219000	779.994706
1.220000	778.243802
1.221000	778.245143
1.222000	777.283103
1.223000	778.082851
1.224000	779.516030
1.225000	779.517869
1.226000	778.564195
1.227000	778.084177
1.228000	778.085685
1.229000	779.198968
1.230000	777.122137
1.231000	777.281249
1.232000	779.040188
1.233000	779.827379
1.234000	779.836921
1.235000	778.711579
1.236000	779.193104
1.237000	778.875710
1.238000	781.108652
1.239000	780.942335
1.240000	781.584977
1.241000	781.265743
1.242000	780.942833
1.243000	781.103286
1.244000	782.381710
1.245000	782.539480
1.246000	783.498339
1.247000	782.055453
1.248000	782.216569
1.249000	783.337886
1.250000	783.495490
1.251000	784.775919
1.252000	784.131439
1.253000	783.169233
1.254000	783.655943
1.255000	783.492144
1.256000	785.562447
1.257000	785.408852
1.258000	786.524156
1.259000	785.886700
1.260000	786.839198
1.261000	786.519634
1.262000	787.324401
1.263000	787.641961
1.264000	788.282084
1.265000	786.529838
1.266000	788.763444
1.267000	788.604498
1.268000	789.556996
1.269000	788.440699
1.270000	789.396212
1.271000	789.718791
1.272000	790.998044
1.273000	789.399558
1.274000	790.995542
1.275000	789.718957
1.276000	789.402407
1.277000	790.518871
1.278000	791.001737
1.279000	791.959586
1.280000	790.839777
1.281000	789.403914
1.282000	790.203497
1.283000	790.370808
1.284000	789.090214
1.285000	789.726328
1.286000	790.209858
1.287000	790.049073
1.288000	789.889630
1.289000	788.774840
1.290000	788.457114
1.291000	788.935459
1.292000	789.253847
1.293000	788.620748
1.294000	788.784381
1.295000	787.667752
1.296000	786.388996
1.297000	787.030462
1.298000	786.709555
1.299000	787.669259
1.300000	785.440176
1.301000	787.200125
1.302000	786.240768
1.303000	785.287591
1.304000	785.123460
1.305000	783.853915
1.306000	785.125978
1.307000	783.379595
1.308000	784.812774
1.309000	783.381600
1.310000	783.062201
1.311000	783.217469
1.312000	782.108874
1.313000	781.312638
1.314000	781.318501
1.315000	780.680714
1.316000	779.407144
1.317000	779.569104
1.318000	779.885488
1.319000	777.495123
1.320000	777.179070
1.321000	777.341694
1.322000	777.182251
1.323000	776.389029
1.324000	776.226572
1.325000	774.469140
1.326000	775.273079
1.327000	774.794403
1.328000	775.281444
1.329000	773.686305
1.330000	772.409554
1.331000	773.688310
1.332000	771.773605
1.333000	771.939409
1.334000	771.137491
1.335000	771.298110
1.336000	770.193358
1.337000	770.506230
1.338000	771.145525
1.339000	770.512260
1.340000	769.555736
1.341000	770.030238
1.342000	768.440615
1.343000	767.327332
1.344000	767.806339
1.345000	767.171401
1.346000	766.373326
1.347000	765.732192
1.348000	765.739216
1.349000	764.462134
1.350000	765.425681
1.351000	765.424008
1.352000	763.830376
1.353000	763.033974
1.354000	763.197939
1.355000	761.125465
1.356000	761.768769
1.357000	760.329395
1.358000	760.488175
1.359000	759.861436
1.360000	759.059518
1.361000	757.468056
1.362000	757.149320
1.363000	756.032857
1.364000	755.562893
1.365000	754.607712
1.366000	752.694681
1.367000	751.573529
1.368000	752.376126
1.369000	751.261170
1.370000	749.991278
1.371000	749.507914
1.372000	746.321312
1.373000	747.921818
1.374000	744.894494
1.375000	745.535462
1.376000	743.465159
1.377000	742.825864
1.378000	741.386655
1.379000	741.397870
1.380000	740.120456
1.381000	739.485005
1.382000	737.412862
1.383000	735.503177
1.384000	734.542811
1.385000	733.594834
1.386000	733.271592
1.387000	732.798267
1.388000	731.524531
1.389000	729.290096
1.390000	727.858922
1.391000	727.062354
1.392000	725.795477
1.393000	724.036538
1.394000	723.075674
1.395000	721.326442
1.396000	719.572688
1.397000	717.352815
1.398000	716.872300
1.399000	715.121892
1.400000	713.202500
1.401000	711.615395
1.402000	708.750031
1.403000	707.632392
1.404000	704.601556
1.405000	703.966617
1.406000	701.415965
1.407000	698.714400
1.408000	696.002813
1.409000	695.206411
1.410000	692.334355
1.411000	689.153949
1.412000	687.242757
1.413000	684.213594
1.414000	681.187611
1.415000	677.841733
1.416000	675.453206
1.417000	672.905734
1.418000	670.198819
1.419000	665.261644
1.420000	662.707977
1.421000	658.884764
1.422000	655.062379
1.423000	651.716335
1.424000	648.213018
1.425000	644.232699
1.426000	641.047439
1.427000	635.476667
1.428000	631.965482
1.429000	627.510495
1.430000	624.161105
1.431000	618.904034
1.432000	614.607828
1.433000	609.671166
1.434000	605.682978
1.435000	599.311283
1.436000	595.009891
1.437000	590.230668
1.438000	586.253197
1.439000	580.517782
1.440000	575.574925
1.441000	569.205068
1.442000	564.900164
1.443000	561.079469
1.444000	553.906353
1.445000	549.293431
1.446000	544.830753
1.447000	539.735974
1.448000	534.003077
1.449000	530.181703
1.450000	524.129075
1.451000	519.017896
1.452000	514.562594
1.453000	508.510132
1.454000	503.573967
1.455000	497.837723
1.456000	493.379738
1.457000	487.007711
1.458000	481.596217
1.459000	477.451435
1.460000	472.354486
1.461000	465.828035
1.462000	461.209596
1.463000	455.793083
1.464000	449.260445
1.465000	446.236483
1.466000	440.018382
1.467000	434.124203
1.468000	427.909283
1.469000	424.407639
1.470000	417.880013
1.471000	410.864848
1.472000	407.356346
1.473000	402.101793
1.474000	397.486037
1.475000	393.179792
1.476000	387.606850
1.477000	381.231976
1.478000	378.528076
1.479000	371.517930
1.480000	367.218890
1.481000	362.276365
1.482000	357.335347
1.483000	352.879034
1.484000	348.413843
1.485000	344.273417
1.486000	339.015337
1.487000	334.235948
1.488000	330.571349
1.489000	326.905740
1.490000	320.527187
1.491000	316.553228
1.492000	312.086198
1.493000	309.379117
1.494000	304.752644
1.495000	301.571228
1.496000	297.744006
1.497000	293.433073
1.498000	288.493893
1.499000	284.824773
1.500000	281.800297
1.501000	277.495394
1.502000	274.785795
1.503000	273.031544
1.504000	268.885752
1.505000	266.016711
1.506000	263.787130
1.507000	259.791239
1.508000	258.996179
1.509000	255.804393
1.510000	253.414525
1.511000	251.180753
1.512000	248.944148
1.513000	245.600937
1.514000	245.751020
1.515000	243.197353
1.516000	241.760314
1.517000	240.488086
1.518000	239.852634
1.519000	237.927375
1.520000	236.656985
1.521000	234.418525
1.522000	234.095780
1.523000	232.976634
1.524000	232.497958
1.525000	231.538254
1.526000	231.058568
1.527000	230.734481
1.528000	228.826303
1.529000	229.618515
1.530000	227.381397
1.531000	228.656625
1.532000	228.176110
1.533000	228.490987
1.534000	228.010124
1.535000	227.687048
1.536000	227.373166
1.537000	226.572408
1.538000	227.042884
1.539000	226.253506
1.540000	227.358423
1.541000	224.169305
1.542000	227.834250
1.543000	227.515680
1.544000	226.388168
1.545000	227.026287
1.546000	226.713249
1.547000	225.433981
1.548000	228.302525
1.549000	225.270844
1.550000	225.906627
1.551000	227.493733
1.552000	226.536878
1.553000	227.969394
1.554000	226.538551
1.555000	227.972227
1.556000	227.650990
1.557000	226.859607
1.558000	228.928072
1.559000	230.519699
1.560000	228.766277
1.561000	230.994019
1.562000	231.951537
1.563000	233.227791
1.564000	234.023679
1.565000	234.501014
1.566000	235.933033
1.567000	237.849576
1.568000	240.396882
1.569000	243.583318
1.570000	242.944520
1.571000	245.659303
1.572000	247.569320
1.573000	249.478341
1.574000	251.711103
1.575000	255.856398
1.576000	258.879365
1.577000	259.355524
1.578000	262.711457
1.579000	265.736926
1.580000	269.721603
1.581000	272.121344
1.582000	272.915228
1.583000	277.376741
1.584000	281.202808
1.585000	282.161832
1.586000	287.735122
1.587000	290.127673
1.588000	291.560686
1.589000	295.230486
1.590000	297.935894
1.591000	299.534545
1.592000	300.971749
1.593000	302.557513
1.594000	304.159345
1.595000	306.231322
1.596000	307.822783
1.597000	309.897941
1.598000	311.008722
1.599000	312.133717
1.600000	313.567227
1.601000	315.956764
1.602000	316.751824
1.603000	316.288206
1.604000	318.676235
1.605000	320.111932
1.606000	320.740344
1.607000	324.251363
1.608000	323.141592
1.609000	325.697595
1.610000	327.446330
1.611000	329.361200
1.612000	332.713273
1.613000	334.945538
1.614000	337.333220
1.615000	341.163638
1.616000	344.990031
1.617000	348.340100
1.618000	350.890587
1.619000	356.155179
1.620000	358.544384
1.621000	363.011746
1.622000	366.040743
1.623000	370.499407
1.624000	373.373800
1.625000	378.478285
1.626000	381.826847
1.627000	385.810513
1.628000	389.165602
1.629000	393.466496
1.630000	396.181446
1.631000	400.165112
1.632000	403.510485
1.633000	406.384380
1.634000	408.149846
1.635000	413.084518
1.636000	413.881915
1.637000	416.927643
1.638000	420.274863
1.639000	422.502439
1.640000	424.258529
1.641000	427.451823
1.642000	428.248722
1.643000	432.076291
1.644000	435.583964
1.645000	436.066152
1.646000	440.046969
1.647000	443.244620
1.648000	445.313913
1.649000	447.387894
1.650000	450.891211
1.651000	454.720454
1.652000	457.112824
1.653000	459.660460
1.654000	464.435674
1.655000	466.511660
1.656000	471.294229
1.657000	475.590602
1.658000	481.013973
1.659000	484.523817
1.660000	489.935808
1.661000	495.040957
1.662000	502.045586
1.663000	507.147389
1.664000	512.404791
1.665000	517.981924
1.666000	524.036556
1.667000	528.659351
1.668000	535.987223
1.669000	541.254001
1.670000	549.856950
1.671000	554.799310
1.672000	561.813812
1.673000	567.549890
1.674000	573.766151
1.675000	580.452889
1.676000	586.345577
1.677000	591.924714
1.678000	599.110884
1.679000	606.431400
1.680000	613.126172
1.681000	618.224628
1.682000	625.715123
1.683000	632.883054
1.684000	640.054833
1.685000	646.108637
1.686000	654.392684
1.687000	662.041793
1.688000	669.688732
1.689000	677.811829
1.690000	684.023403
1.691000	693.900088
1.692000	700.115340
1.693000	710.779367
1.694000	718.269696
1.695000	728.780988
1.696000	734.673826
1.697000	744.712804
1.698000	751.875865
1.699000	761.267680
1.700000	769.873809
1.701000	778.627323
1.702000	788.023991
1.703000	796.149092
1.704000	804.901943
1.705000	812.391262
1.706000	820.673637
1.707000	830.226567
1.708000	838.184357
1.709000	847.266314
1.710000	855.392260
1.711000	864.468685
1.712000	873.229735
1.713000	880.079096
1.714000	889.636383
1.715000	897.445764
1.716000	905.240599
1.717000	914.329248
1.718000	921.815055
1.719000	929.140756
1.720000	937.903646
1.721000	944.116727
1.722000	952.708627
1.723000	961.477712
1.724000	968.482838
1.725000	973.899683
1.726000	981.706728
1.727000	991.105913
1.728000	997.633705
1.729000	1006.073510
1.730000	1012.455741
1.731000	1020.261113
1.732000	1026.630125
1.733000	1033.794860
1.734000	1042.562106
1.735000	1049.726178
1.736000	1056.568681
1.737000	1064.540354
1.738000	1072.661778
1.739000	1079.360393
1.740000	1088.752539
1.741000	1094.004243
1.742000	1102.450582
1.743000	1111.049175
1.744000	1118.853718
1.745000	1127.295204
1.746000	1133.501743
1.747000	1143.698324
1.748000	1150.866074
1.749000	1158.829049
1.750000	1165.994629
1.751000	1175.388613
1.752000	1182.874255
1.753000	1190.043015
1.754000	1198.643099
1.755000	1207.724724
1.756000	1214.410452
1.757000	1222.854953
1.758000	1232.730130
1.759000	1238.942201
1.760000	1246.902675
1.761000	1255.980276
1.762000	1264.107895
1.763000	1271.580980
1.764000	1280.347563
1.765000	1289.585450
1.766000	1297.228696
1.767000	1306.310652
1.768000	1314.915606
1.769000	1324.146304
1.770000	1331.956364
1.771000	1341.839576
1.772000	1349.640094
1.773000	1359.358330
1.774000	1368.916627
1.775000	1378.638044
1.776000	1387.234798
1.777000	1395.683821
1.778000	1404.604828
1.779000	1413.050007
1.780000	1420.857217
1.781000	1430.577127
1.782000	1438.386358
1.783000	1446.987303
1.784000	1455.587237
1.785000	1463.562769
1.786000	1471.529604
1.787000	1479.332971
1.788000	1486.665530
1.789000	1494.309288
1.790000	1501.808993
1.791000	1509.772979
1.792000	1517.108553
1.793000	1523.803325
1.794000	1532.092573
1.795000	1537.031918
1.796000	1545.004104
1.797000	1552.336000
1.798000	1558.225673
1.799000	1563.329828
1.800000	1572.254843
1.801000	1577.992097
1.802000	1586.604422
1.803000	1592.982644
1.804000	1599.993469
1.805000	1607.804870
1.806000	1615.934012
1.807000	1622.950021
1.808000	1631.867184
1.809000	1639.203421
1.810000	1647.971843
1.811000	1657.695281
1.812000	1666.775067
1.813000	1677.613626
1.814000	1686.223947
1.815000	1694.666940
1.816000	1703.749741
1.817000	1714.278775
1.818000	1722.879885
1.819000	1734.038341
1.820000	1741.047989
1.821000	1749.659304
1.822000	1760.178133
1.823000	1767.351084
1.824000	1775.953701
1.825000	1783.453903
1.826000	1791.263134
1.827000	1798.751624
1.828000	1807.523061
1.829000	1814.066589
1.830000	1821.390617
1.831000	1827.611235
1.832000	1834.946809
1.833000	1839.892515
1.834000	1848.342383
1.835000	1853.285918
1.836000	1859.346414
1.837000	1866.840271
1.838000	1871.465750
1.839000	1876.894654
1.840000	1882.308997
1.841000	1888.534469
1.842000	1893.958685
1.843000	1899.372697
1.844000	1904.006375
1.845000	1908.949745
1.846000	1914.056235
1.847000	1919.798674
1.848000	1924.582933
1.849000	1928.893534
1.850000	1933.829202
1.851000	1936.869745
1.852000	1941.808758
1.853000	1945.481738
1.854000	1949.144332
1.855000	1952.339978
1.856000	1955.692549
1.857000	1959.688108
1.858000	1961.284424
1.859000	1963.995695
1.860000	1967.832143
1.861000	1969.113747
1.862000	1971.828712
1.863000	1973.109820
1.864000	1975.504210
1.865000	1976.306807
1.866000	1976.474631
1.867000	1976.961175
1.868000	1979.517029
1.869000	1979.366796
1.870000	1979.529104
1.871000	1978.105963
1.872000	1979.074877
1.873000	1978.757498
1.874000	1977.331359
1.875000	1976.546685
1.876000	1976.720870
1.877000	1976.884519
1.878000	1974.669499
1.879000	1974.513584
1.880000	1972.931514
1.881000	1972.458038
1.882000	1971.194688
1.883000	1970.886354
1.884000	1971.693654
1.885000	1967.717691
1.886000	1967.406508
1.887000	1966.942905
1.888000	1963.452989
1.889000	1961.067825
1.890000	1959.484744
1.891000	1957.418978
1.892000	1954.398197
1.893000	1951.381937
1.894000	1949.640755
1.895000	1946.308112
1.896000	1944.562408
1.897000	1939.946486
1.898000	1937.728136
1.899000	1933.118907
1.900000	1928.512196
1.901000	1925.173025
1.902000	1920.565304
1.903000	1915.316117
1.904000	1909.755566
1.905000	1907.208275
1.906000	1901.800806
1.907000	1897.191080
1.908000	1893.694637
1.909000	1888.132910
1.910000	1883.360395
1.911000	1878.899228
1.912000	1876.210567
1.913000	1871.752085
1.914000	1867.624878
1.915000	1863.806866
1.916000	1857.599483
1.917000	1852.348457
1.918000	1849.652260
1.919000	1844.724476
1.920000	1842.025264
1.921000	1838.526982
1.922000	1833.276122
1.923000	1828.823322
1.924000	1823.895539
1.925000	1818.962405
1.926000	1814.677760
1.927000	1809.261925
1.928000	1805.129202
1.929000	1800.677080
1.930000	1796.387581
1.931000	1790.340486
1.932000	1786.367205
1.933000	1781.437583
1.934000	1774.594252
1.935000	1770.459855
1.936000	1764.887758
1.937000	1760.122764
1.938000	1755.985519
1.939000	1749.465098
1.940000	1745.008288
1.941000	1739.916706
1.942000	1735.942415
1.943000	1729.409951
1.944000	1725.276715
1.945000	1721.941388
1.946000	1717.007244
1.947000	1712.232377
1.948000	1708.252736
1.949000	1704.755614
1.950000	1699.495710
1.951000	1697.437134
1.952000	1691.225561
1.953000	1687.724430
1.954000	1684.861915
1.955000	1683.275323
1.956000	1678.814820
1.957000	1675.477322
1.958000	1672.927348
1.959000	1670.536651
1.960000	1667.517709
1.961000	1665.925418
1.962000	1662.899948
1.963000	1660.994289
1.964000	1658.769064
1.965000	1656.212232
1.966000	1653.991695
1.967000	1651.915875
1.968000	1651.131367
1.969000	1649.222361
1.970000	1646.831498
1.971000	1645.399164
1.972000	1644.454715
1.973000	1641.587512
1.974000	1641.110691
1.975000	1639.044578
1.976000	1639.366494
1.977000	1636.973296
1.978000	1636.026330
1.979000	1635.877935
1.980000	1635.869586
1.981000	1634.762664
1.982000	1634.609416
1.983000	1633.017804
1.984000	1633.344408
1.985000	1632.551700
1.986000	1633.352971
1.987000	1632.239356
1.988000	1633.522650
1.989000	1634.330613
1.990000	1636.566736
1.991000	1636.091588
1.992000	1638.020703
1.993000	1638.981914
1.994000	1640.422812
1.995000	1641.229102
1.996000	1641.873432
1.997000	1642.201709
1.998000	1645.075454
1.999000	1647.473538
2.000000	1649.558584
2.001000	1651.951979
2.002000	1654.831754
2.003000	1657.392461
2.004000	1660.261849
2.005000	1663.942035
2.006000	1667.297968
2.007000	1670.649047
2.008000	1673.201389
2.009000	1677.515171
2.010000	1680.389081
2.011000	1684.860136
2.012000	1686.775353
2.013000	1690.450172
2.014000	1691.894416
2.015000	1696.360617
2.016000	1699.716716
2.017000	1701.794722
2.018000	1704.508842
2.019000	1707.063354
2.020000	1709.784001
2.021000	1711.860169
2.022000	1713.613923
2.023000	1715.376721
2.024000	1716.174132
2.025000	1718.415938
2.026000	1718.422465
2.027000	1720.649875
2.028000	1720.814353
2.029000	1722.097631
2.030000	1722.416366
2.031000	1723.699644
2.032000	1726.885582
2.033000	1725.295296
2.034000	1727.058094
2.035000	1725.786031
2.036000	1725.313219
2.037000	1726.278108
2.038000	1726.753272
2.039000	1728.190642
2.040000	1727.394587
2.041000	1727.719005
2.042000	1726.284485
2.043000	1727.733235
2.044000	1725.495454
2.045000	1725.022808
2.046000	1725.989370
2.047000	1724.233943
2.048000	1722.167498
2.049000	1721.857641
2.050000	1720.902294
2.051000	1718.197564
2.052000	1717.079925
2.053000	1715.815399
2.054000	1712.782392
2.055000	1711.672621
2.056000	1710.719113
2.057000	1708.492050
2.058000	1706.429780
2.059000	1703.401462
2.060000	1699.735008
2.061000	1698.780339
2.062000	1697.034288
2.063000	1694.005970
2.064000	1691.299883
2.065000	1687.156096
2.066000	1683.813398
2.067000	1679.987336
2.068000	1676.331766
2.069000	1672.340065
2.070000	1668.517184
2.071000	1663.250903
2.072000	1658.153276
2.073000	1652.896039
2.074000	1647.637461
2.075000	1641.420024
2.076000	1634.241044
2.077000	1628.336810
2.078000	1619.729338
2.079000	1613.030542
2.080000	1605.052824
2.081000	1595.802364
2.082000	1587.832846
2.083000	1578.741167
2.084000	1569.488039
2.085000	1559.117936
2.086000	1547.631037
2.087000	1535.987363
2.088000	1523.062598
2.089000	1511.096842
2.090000	1497.370324
2.091000	1481.259107
2.092000	1465.945302
2.093000	1448.709256
2.094000	1430.356913
2.095000	1412.495470
2.096000	1392.709600
2.097000	1372.282431
2.098000	1349.306779
2.099000	1324.248946
2.100000	1296.644139
2.101000	1269.198277
2.102000	1242.556337
2.103000	1211.119770
2.104000	1180.309941
2.105000	1145.515948
2.106000	1106.902737
2.107000	1068.918450
2.108000	1030.936009
2.109000	990.721131
2.110000	948.750345
2.111000	902.805071
2.112000	857.967729
2.113000	810.261180
2.114000	763.035312
2.115000	715.492713
2.116000	669.551630
2.117000	621.210474
2.118000	574.952675
2.119000	529.502493
2.120000	483.724215
2.121000	441.149119
2.122000	399.536227
2.123000	362.059256
2.124000	323.325955
2.125000	288.728254
2.126000	251.263507
2.127000	218.750346
2.128000	189.427465
2.129000	165.850218
2.130000	145.123273
2.131000	121.064999
2.132000	95.884927
2.133000	77.399942
2.134000	62.428827
2.135000	50.815480
2.136000	38.572366
2.137000	24.398132
2.138000	17.725623
2.139000	15.829158
2.140000	16.802744
2.141000	16.655526
2.142000	14.412228
2.143000	8.181106
2.144000	-4.116061
2.145000	-12.908569
2.146000	-14.671020
2.147000	-9.879059
2.148000	-4.136454
2.149000	1.453716
2.150000	4.023933
2.151000	3.872509
2.152000	5.795744
2.153000	8.512201
2.154000	6.751589
2.155000	4.200273
2.156000	1.321028
2.157000	0.506900
2.158000	-2.686891
2.159000	-1.572598
2.160000	-3.174264
2.161000	-2.052781
2.162000	0.662334
2.163000	0.194360
2.164000	3.073440
2.165000	4.027777
2.166000	4.672257
2.167000	5.149260
2.168000	2.747680
2.169000	0.837166
2.170000	-0.285824
2.171000	-1.412657
2.172000	-1.730715
2.173000	-1.247351
2.174000	0.347955
2.175000	0.349628
2.176000	1.627041
2.177000	3.546765
2.178000	3.066581
2.179000	1.479476
2.180000	1.314169
2.181000	0.833654
2.182000	-0.602539
2.183000	-0.128038
2.184000	-0.764666
2.185000	-0.130722
2.186000	-0.286984
2.187000	0.513261
2.188000	1.633568
2.189000	1.625534
2.190000	2.901788
2.191000	3.060899
2.192000	1.782641
2.193000	1.306814
2.194000	0.351798
2.195000	0.825968
2.196000	0.984913
2.197000	1.147537
2.198000	0.665349
2.199000	-0.449789
2.200000	0.833157
2.201000	0.985742
2.202000	3.058895
2.203000	1.151049
2.204000	2.583896
2.205000	2.103547
2.206000	1.143180
2.207000	0.501881
2.208000	1.303468
2.209000	0.192189
2.210000	0.829480
2.211000	1.626378
2.212000	0.353140
2.213000	1.304975
2.214000	0.510412
2.215000	0.665846
2.216000	1.624871
2.217000	1.783817
2.218000	1.781978
2.219000	0.354315
2.220000	1.307990
2.221000	1.306814
2.222000	0.982562
2.223000	1.946275
2.224000	0.667353
2.225000	0.513924
2.226000	0.351301
2.227000	0.987084
2.228000	0.192024
2.229000	0.987084
2.230000	0.667188
2.231000	1.302805
2.232000	0.669855
2.233000	0.346613
2.234000	1.468940
2.235000	1.460575
2.236000	0.669026
2.237000	1.146361
2.238000	0.825123
2.239000	0.664339
2.240000	1.147868
2.241000	0.510081
2.242000	2.419765
2.243000	1.146195
2.244000	1.945943
2.245000	-0.285311
2.246000	1.783651
2.247000	1.623032
2.248000	0.032068
2.249000	2.421604
2.250000	0.190350
2.251000	0.829811
2.252000	2.416751
2.253000	0.829314
2.254000	1.146029
2.255000	1.462248
2.256000	1.303302
2.257000	0.351135
2.258000	1.947616
2.259000	1.624871
2.260000	1.938919
2.261000	0.987084
2.262000	0.826631
2.263000	2.260820
2.264000	1.144522
2.265000	1.308321
2.266000	2.420776
2.267000	1.301795
2.268000	1.783651
2.269000	1.622701
2.270000	2.422780
2.271000	1.942431
2.272000	-0.132395
2.273000	2.100367
2.274000	0.506569
2.275000	0.672207
2.276000	1.299956
2.277000	2.095016
2.278000	0.988757
2.279000	0.508739
2.280000	0.029566
2.281000	0.986918
2.282000	0.987084
2.283000	0.185165
2.284000	0.342769
2.285000	1.303799
2.286000	0.991937
2.287000	2.099538
2.288000	1.306648
2.289000	1.942431
2.290000	2.421107
2.291000	1.308156
2.292000	2.101543
2.293000	-0.130722
2.294000	0.347623
2.295000	2.580219
2.296000	0.822953
2.297000	-0.130887
2.298000	0.985079
2.299000	0.508408
2.300000	1.299790
2.301000	1.306482
2.302000	1.141341
2.303000	2.101874
2.304000	1.143859
2.305000	1.626047
2.306000	1.145698
2.307000	0.511754
2.308000	0.987084
2.309000	0.984913
2.310000	0.504730
2.311000	1.464087
2.312000	1.304975
2.313000	1.142849
2.314000	0.508739
2.315000	0.505559
2.316000	0.032912
2.317000	0.503720
2.318000	1.142517
2.319000	0.510246
2.320000	-0.122853
2.321000	2.578545
2.322000	-0.288160
2.323000	0.029897
2.324000	0.821611
2.325000	1.625716
2.326000	0.187170
2.327000	1.142683
2.328000	0.347126
2.329000	1.143528
2.330000	0.347126
2.331000	1.303302
2.332000	1.142849
2.333000	-0.125868
2.334000	0.344277
2.335000	1.303468
2.336000	1.783320
2.337000	0.506900
2.338000	0.988425
2.339000	0.027727
2.340000	-0.129380
2.341000	1.621193
2.342000	0.031239
2.343000	0.665514
2.344000	0.665514
2.345000	0.349628
2.346000	0.662500
2.347000	0.666177
2.348000	1.306151
2.349000	0.023039
2.350000	1.143859
2.351000	1.624374
2.352000	1.463755
2.353000	0.666856
2.354000	0.024381
2.355000	2.103381
2.356000	0.664339
2.357000	1.306648
2.358000	1.779973
2.359000	1.781646
2.360000	1.135991
2.361000	1.148878
2.362000	1.146195
2.363000	0.988260
2.364000	0.665514
2.365000	1.463921
2.366000	0.983903
2.367000	0.985411
2.368000	0.665846
2.369000	1.784330
2.370000	1.783320
2.371000	1.142517
2.372000	0.190019
2.373000	1.142683
2.374000	1.463921
2.375000	1.463589
2.376000	0.827806
2.377000	1.937743
2.378000	1.780139
2.379000	-0.288491
2.380000	0.345784
2.381000	1.142517
2.382000	1.942597
2.383000	1.621359
2.384000	0.347955
2.385000	1.944601
2.386000	0.504896
2.387000	1.302473
2.388000	0.821445
2.389000	0.663676
2.390000	1.942100
2.391000	0.664007
2.392000	0.824129
2.393000	1.301960
2.394000	1.141176
2.395000	-0.128204
2.396000	1.144025
2.397000	1.783651
2.398000	1.455389
2.399000	0.827641
2.400000	0.983240
2.401000	1.459233
2.402000	0.666856
2.403000	0.504398
2.404000	1.297438
2.405000	0.345453
2.406000	1.460575
2.407000	-0.293179
2.408000	1.783485
2.409000	1.937743
2.410000	1.307824
2.411000	0.027561
2.412000	1.943938
2.413000	1.784993
2.414000	0.979728
2.415000	0.498203
2.416000	1.298283
2.417000	0.984748
2.418000	1.307824
2.419000	1.461750
2.420000	0.503223
2.421000	0.824294
2.422000	1.781978
2.423000	0.988094
2.424000	1.463424
2.425000	2.419268
2.426000	1.139503
2.427000	1.939251
2.428000	0.671875
2.429000	0.500042
2.430000	2.097699
2.431000	0.978552
2.432000	0.824626
2.433000	1.298448
2.434000	0.186838
2.435000	0.665846
2.436000	0.348633
2.437000	0.503388
2.438000	0.501218
2.439000	0.660661
2.440000	0.350638
2.441000	1.622204
2.442000	0.668529
2.443000	1.937412
2.444000	0.985079
2.445000	0.182151
2.446000	1.463258
2.447000	1.778466
2.448000	1.145698
2.449000	0.823963
2.450000	0.985742
2.451000	1.303136
2.452000	0.822787
2.453000	0.826133
2.454000	1.304809
2.455000	1.139171
2.456000	1.300966
2.457000	0.185165
2.458000	1.303302
2.459000	1.304146
2.460000	1.147371
2.461000	0.507745
2.462000	1.306482
2.463000	1.623032
2.464000	0.184155
2.465000	0.660661
2.466000	0.345618
2.467000	-0.286652
2.468000	1.144190
2.469000	-0.131219
2.470000	1.304644
2.471000	1.626213
2.472000	0.827972
2.473000	0.183658
2.474000	0.824129
2.475000	1.776461
2.476000	1.141010
2.477000	1.141341
2.478000	0.025888
2.479000	0.663510
2.480000	1.463755
2.481000	1.301132
2.482000	0.669871
2.483000	0.663841
2.484000	-0.132726
2.485000	0.826133
2.486000	-0.292169
2.487000	1.465428
2.488000	-1.244170
2.489000	1.139171
2.490000	0.664339
2.491000	0.980060
2.492000	1.616340
2.493000	1.462579
2.494000	-0.289999
2.495000	0.983406
2.496000	1.458404
2.497000	3.052036
2.498000	1.299790
2.499000	1.140679
2.500000	1.140844
2.501000	0.983737
2.502000	1.461916
2.503000	0.827641
2.504000	0.987928
2.505000	1.142186
2.506000	0.026385
2.507000	2.419600
2.508000	0.504730
2.509000	0.663344
2.510000	0.664339
2.511000	1.142186
2.512000	2.097865
2.513000	0.028058
2.514000	1.617516
2.515000	1.141341
2.516000	1.140844
2.517000	0.506569
2.518000	0.984748
2.519000	1.301629
2.520000	0.508242
2.521000	0.505906
2.522000	1.145864
2.523000	0.819772
2.524000	1.455555
2.525000	1.942265
2.526000	0.663676
2.527000	1.301297
2.528000	0.508408
2.529000	1.784661
2.530000	1.143693
2.531000	-0.292501
2.532000	0.509915
2.533000	2.253630
2.534000	0.350638
2.535000	1.301297
2.536000	-0.773860
2.537000	1.301795
2.538000	0.344111
2.539000	1.778135
2.540000	2.098196
2.541000	0.181322
2.542000	1.617350
2.543000	0.822787
2.544000	0.347623
2.545000	1.620696
2.546000	0.344443
2.547000	1.299790
2.548000	0.822953
2.549000	1.302639
2.550000	1.624042
2.551000	0.501715
2.552000	0.504398
2.553000	2.099372
2.554000	0.346960
2.555000	0.981236
2.556000	1.140347
2.557000	0.344277
2.558000	0.667353
2.559000	1.299624
2.560000	1.779642
2.561000	0.026385
2.562000	-0.132726
2.563000	2.098031
2.564000	0.019859
2.565000	0.657646
2.566000	1.299459
2.567000	0.670865
2.568000	0.188346
2.569000	1.617681
2.570000	0.667188
2.571000	-0.131550
2.572000	1.625881
2.573000	0.501218
2.574000	0.822456
2.575000	2.253299
2.576000	0.660661
2.577000	1.776959
2.578000	0.819109
2.579000	1.139171
2.580000	1.297951
2.581000	0.347292
2.582000	1.142683
2.583000	0.981070
2.584000	-0.288657
2.585000	0.984582
2.586000	0.658822
2.587000	0.657315
2.588000	0.825968
2.589000	1.466770
2.590000	0.978718
2.591000	1.621028
2.592000	1.932724
2.593000	1.936583
2.594000	1.778466
2.595000	0.185663
2.596000	0.663510
2.597000	0.501218
2.598000	1.304478
2.599000	0.820617
2.600000	1.945777
2.601000	1.622535
2.602000	1.138840
2.603000	1.301463
2.604000	0.501549
2.605000	0.340599
2.606000	1.616008
2.607000	1.299624
2.608000	1.296278
2.609000	2.103381
2.610000	0.660329
2.611000	0.349975
2.612000	0.506237
2.613000	0.183326
2.614000	0.984748
2.615000	0.817768
2.616000	1.619023
2.617000	0.500042
2.618000	0.821114
2.619000	0.184668
2.620000	0.190019
2.621000	0.188512
2.622000	0.347457
2.623000	0.822621
2.624000	0.981733
2.625000	2.260488
2.626000	1.776627
2.627000	0.820782
2.628000	1.464765
2.629000	1.461585
2.630000	1.783651
2.631000	1.142186
2.632000	0.985079
2.633000	0.667022
2.634000	1.776627
2.635000	2.095860
2.636000	0.822124
2.637000	0.502891
2.638000	-0.447603
2.639000	-0.134399
2.640000	0.981733
2.641000	2.256313
2.642000	1.781646
2.643000	1.141010
2.644000	1.298117
2.645000	1.301297
2.646000	0.024215
2.647000	0.822456
2.648000	-0.291838
2.649000	0.822787
2.650000	1.143362
2.651000	1.307658
2.652000	2.256976
2.653000	0.978387
2.654000	0.981567
2.655000	1.774788
2.656000	1.781481
2.657000	0.662334
2.658000	0.985245
2.659000	1.137332
2.660000	2.255469
2.661000	1.134318
2.662000	-0.295184
2.663000	1.144025
2.664000	0.659154
2.665000	1.142186
2.666000	0.183989
2.667000	1.460077
2.668000	2.263172
2.669000	0.504896
2.670000	-0.300037
2.671000	0.984913
2.672000	0.501715
2.673000	0.179980
2.674000	0.824129
2.675000	-0.139253
2.676000	0.660329
2.677000	1.296444
2.678000	1.463589
2.679000	2.733813
2.680000	0.822290
2.681000	0.186673
2.682000	1.939085
2.683000	2.093674
2.684000	1.458404
2.685000	0.663344
2.686000	0.344111
2.687000	1.936915
2.688000	1.144356
2.689000	1.294936
2.690000	1.293263
2.691000	0.504730
2.692000	1.458570
2.693000	0.185000
2.694000	2.094519
2.695000	0.826299
2.696000	2.735818
2.697000	1.144025
2.698000	4.003872
2.699000	36.076334
2.700000	96.284407
2.701000	251.437558
2.702000	310.712597
2.703000	253.139950
2.704000	224.983638
2.705000	276.637356
2.706000	383.510038
2.707000	538.864962
2.708000	737.497628
2.709000	845.020861
2.710000	1005.059625
2.711000	1341.058789
2.712000	1927.459689
2.713000	2536.595634
2.714000	2999.516578
2.715000	3250.702773
2.716000	3343.830473
2.717000	3228.457768
2.718000	2809.713505
2.719000	2153.562789
2.720000	1559.445313
2.721000	1272.245962
2.722000	1228.162509
2.723000	1214.249077
2.724000	1091.273339
2.725000	948.631817
2.726000	913.614180
2.727000	1016.120686
2.728000	1128.429170
2.729000	1166.762152
2.730000	1158.054168
2.731000	1196.105270
2.732000	1295.530382
2.733000	1389.377352
2.734000	1420.271784
2.735000	1404.157402
2.736000	1422.321165
2.737000	1493.404353
2.738000	1577.099947
2.739000	1626.028815
2.740000	1649.920607
2.741000	1683.402153
2.742000	1743.651619
2.743000	1802.162058
2.744000	1837.558339
2.745000	1862.111871
2.746000	1897.038355
2.747000	1941.858105
2.748000	1984.265542
2.749000	2012.318200
2.750000	2029.046417
2.751000	2042.242843
2.752000	2054.156985
2.753000	2066.388009
2.754000	2080.187536
2.755000	2100.374843
2.756000	2126.168752
2.757000	2156.066411
2.758000	2200.483479
2.759000	2282.504492
2.760000	2490.628214
2.761000	2765.789292
2.762000	2962.407679
2.763000	3136.411675
2.764000	3432.289460
2.765000	3836.236462
2.766000	4251.422190
2.767000	4580.166274
2.768000	4782.991811
2.769000	4949.935477
2.770000	5139.415168
2.771000	5305.151626
2.772000	5378.854532
2.773000	5349.095113
2.774000	5298.918955
2.775000	5291.803364
2.776000	5278.136747
2.777000	5217.629857
2.778000	5118.751300
2.779000	5012.525101
2.780000	4922.509787
2.781000	4837.350928
2.782000	4722.320982
2.783000	4577.032418
2.784000	4420.993560
2.785000	4265.333219
2.786000	4116.202707
2.787000	3957.919163
2.788000	3781.508924
2.789000	3599.517212
2.790000	3432.914351
2.791000	3288.803943
2.792000	3161.097499
2.793000	3041.602268
2.794000	2931.504714
2.795000	2836.697842
2.796000	2758.570138
2.797000	2689.052241
2.798000	2617.283645
2.799000	2536.084146
2.800000	2458.880600
2.801000	2399.659593
2.802000	2349.669599
2.803000	2297.762203
2.804000	2239.459656
2.805000	2188.966008
2.806000	2158.087044
2.807000	2131.331759
2.808000	2100.095199
2.809000	2065.521126
2.810000	2038.426996
2.811000	2023.766400
2.812000	2014.210124
2.813000	2000.970134
2.814000	1987.887086
2.815000	1978.786197
2.816000	1974.794812
2.817000	1973.351894
2.818000	1967.604073
2.819000	1964.873190
2.820000	1962.156868
2.821000	1963.422207
2.822000	1963.404600
2.823000	1964.356388
2.824000	1965.454069
2.825000	1968.781677
2.826000	1972.754263
2.827000	1976.250177
2.828000	1976.384145
2.829000	1976.518278
2.830000	1976.501334
2.831000	1977.760478
2.832000	1974.557099
2.833000	1971.346529
2.834000	1964.641387
2.835000	1958.409026
2.836000	1949.155536
2.837000	1940.695283
2.838000	1929.051262
2.839000	1916.771473
2.840000	1903.370368
2.841000	1891.573612
2.842000	1877.868513
2.843000	1862.727899
2.844000	1846.794063
2.845000	1831.179958
2.846000	1815.247133
2.847000	1799.476268
2.848000	1784.827897
2.849000	1767.943417
2.850000	1751.862198
2.851000	1736.891263
2.852000	1720.490313
2.853000	1703.928413
2.854000	1690.555632
2.855000	1674.313297
2.856000	1661.099627
2.857000	1647.562202
2.858000	1632.911826
2.859000	1621.613192
2.860000	1608.398678
2.861000	1596.294613
2.862000	1583.552083
2.863000	1571.772934
2.864000	1559.837175
2.865000	1546.774583
2.866000	1535.631383
2.867000	1522.577653
2.868000	1511.752842
2.869000	1498.538841
2.870000	1485.491141
2.871000	1472.269768
2.872000	1457.464140
2.873000	1443.940778
2.874000	1428.494513
2.875000	1415.756671
2.876000	1401.913579
2.877000	1386.790059
2.878000	1372.138688
2.879000	1358.608122
2.880000	1342.367128
2.881000	1328.830713
2.882000	1314.191386
2.883000	1299.537332
2.884000	1285.850171
2.885000	1270.404403
2.886000	1258.143729
2.887000	1242.536498
2.888000	1230.121897
2.889000	1216.105962
2.890000	1203.846962
2.891000	1189.675924
2.892000	1175.979222
2.893000	1161.804673
2.894000	1150.024514
2.895000	1135.851140
2.896000	1124.383340
2.897000	1112.287973
2.898000	1101.460975
2.899000	1088.079647
2.900000	1075.981762
2.901000	1063.715888
2.902000	1054.001510
2.903000	1040.941925
2.904000	1030.749037
2.905000	1020.402388
2.906000	1009.250806
2.907000	999.859671
2.908000	986.166465
2.909000	975.967714
2.910000	966.891621
2.911000	957.334003
2.912000	947.146134
2.913000	937.744779
2.914000	927.402139
2.915000	917.837663
2.916000	908.761902
2.917000	897.774451
2.918000	889.651354
2.919000	878.978945
2.920000	870.219718
2.921000	860.347389
2.922000	851.263594
2.923000	842.352129
2.924000	833.108890
2.925000	824.040484
2.926000	815.114458
2.927000	805.403080
2.928000	797.275129
2.929000	788.197529
2.930000	778.956626
2.931000	770.516135
2.932000	761.752401
2.933000	752.514182
2.934000	743.760652
2.935000	734.834129
2.936000	726.392975
2.937000	718.909670
2.938000	710.305048
2.939000	700.749781
2.940000	692.464889
2.941000	686.100731
2.942000	677.020281
2.943000	668.733551
2.944000	661.720722
2.945000	652.320873
2.946000	644.513813
2.947000	637.029845
2.948000	630.338419
2.949000	620.777952
2.950000	613.777845
2.951000	607.088093
2.952000	599.911796
2.953000	590.349987
2.954000	584.776035
2.955000	576.327510
2.956000	569.954307
2.957000	564.542978
2.958000	556.577651
2.959000	550.518662
2.960000	543.344038
2.961000	537.931037
2.962000	530.608516
2.963000	523.905379
2.964000	519.766958
2.965000	512.594670
2.966000	506.384769
2.967000	500.801773
2.968000	495.543029
2.969000	489.969243
2.970000	484.239013
2.971000	478.335624
2.972000	474.034398
2.973000	467.977745
2.974000	464.955787
2.975000	458.581243
2.976000	452.363308
2.977000	449.019600
2.978000	442.803007
2.979000	437.544263
2.980000	435.154727
2.981000	430.376000
2.982000	426.222008
2.983000	421.610933
2.984000	416.351858
2.985000	412.370362
2.986000	408.384013
2.987000	403.926690
2.988000	399.620776
2.989000	396.278078
2.990000	392.612469
2.991000	390.541668
2.992000	385.599972
2.993000	383.366713
2.994000	378.746088
2.995000	376.514503
2.996000	372.531334
2.997000	370.783610
2.998000	367.917070
2.999000	365.202950
3.000000	363.929892
3.001000	361.852731
3.002000	359.467882
3.003000	357.232272
3.004000	355.643327
3.005000	355.164651
3.006000	351.666685
3.007000	350.864435
3.008000	349.910595
3.009000	347.522400
3.010000	347.203001
3.011000	346.087548
3.012000	346.089056
3.013000	344.972758
3.014000	343.858630
3.015000	343.062907
3.016000	344.496931
3.017000	344.176356
3.018000	344.491730
3.019000	344.973934
3.020000	346.567234
3.021000	346.889648
3.022000	346.888472
3.023000	346.732541
3.024000	348.803010
3.025000	349.285033
3.026000	350.394638
3.027000	351.676242
3.028000	352.472478
3.029000	352.158596
3.030000	354.382660
3.031000	356.131395
3.032000	357.575623
3.033000	358.046762
3.034000	360.285221
3.035000	361.081788
3.036000	362.998166
3.037000	364.270907
3.038000	365.543633
3.039000	367.305421
3.040000	369.696797
3.041000	371.447701
3.042000	372.246605
3.043000	374.157300
3.044000	375.754112
3.045000	377.189643
3.046000	379.735442
3.047000	381.331426
3.048000	383.246296
3.049000	385.793934
3.050000	388.346094
3.051000	390.098009
3.052000	392.167303
3.053000	394.882930
3.054000	395.999725
3.055000	397.907903
3.056000	401.574190
3.057000	403.965732
3.058000	407.794643
3.059000	408.109851
3.060000	413.048533
3.061000	414.645677
3.062000	417.035048
3.063000	419.588881
3.064000	423.095213
3.065000	425.798119
3.066000	429.465566
3.067000	431.220993
3.068000	435.043212
3.069000	439.032741
3.070000	441.581887
3.071000	445.723828
3.072000	448.592372
3.073000	451.460072
3.074000	454.808468
3.075000	458.316970
3.076000	462.774474
3.077000	467.079709
3.078000	468.995092
3.079000	472.819315
3.080000	476.165193
3.081000	479.676047
3.082000	483.182213
3.083000	487.162699
3.084000	490.669362
3.085000	493.694847
3.086000	498.166067
3.087000	502.303494
3.088000	505.336169
3.089000	508.684068
3.090000	513.625417
3.091000	516.495138
3.092000	520.634237
3.093000	524.309222
3.094000	527.970474
3.095000	531.157920
3.096000	534.025304
3.097000	537.856220
3.098000	541.521828
3.099000	545.987517
3.100000	548.696618
3.101000	553.643002
3.102000	556.987208
3.103000	559.859098
3.104000	564.161997
3.105000	566.551700
3.106000	571.816473
3.107000	575.645384
3.108000	578.669693
3.109000	581.860817
3.110000	585.849005
3.111000	589.830832
3.112000	593.814001
3.113000	597.805535
3.114000	601.146229
3.115000	605.615445
3.116000	610.715243
3.117000	614.382525
3.118000	616.457185
3.119000	622.511999
3.120000	626.174758
3.121000	631.920891
3.122000	636.859060
3.123000	640.840224
3.124000	644.988021
3.125000	649.769943
3.126000	655.983522
3.127000	660.131831
3.128000	665.706959
3.129000	671.607681
3.130000	677.502042
3.131000	681.652522
3.132000	685.955587
3.133000	692.648354
3.134000	696.315470
3.135000	702.851644
3.136000	707.633716
3.137000	712.575081
3.138000	717.038931
3.139000	721.502283
3.140000	726.126420
3.141000	730.435183
3.142000	735.374527
3.143000	740.150918
3.144000	742.544463
3.145000	747.964836
3.146000	752.595831
3.147000	757.375402
3.148000	760.874875
3.149000	764.384221
3.150000	768.216810
3.151000	772.837269
3.152000	776.346616
3.153000	779.053365
3.154000	782.244488
3.155000	785.908093
3.156000	788.780480
3.157000	791.810653
3.158000	796.916481
3.159000	798.988458
3.160000	801.863031
3.161000	805.523455
3.162000	808.872183
3.163000	811.898812
3.164000	813.342227
3.165000	817.807071
3.166000	818.754716
3.167000	823.222077
3.168000	824.822418
3.169000	827.847224
3.170000	829.766782
3.171000	833.750961
3.172000	834.390753
3.173000	837.740159
3.174000	840.448582
3.175000	843.794295
3.176000	844.590862
3.177000	846.346620
3.178000	848.739006
3.179000	851.766827
3.180000	855.442143
3.181000	856.711705
3.182000	858.309693
3.183000	861.338012
3.184000	863.414676
3.185000	864.365502
3.186000	867.873009
3.187000	870.583949
3.188000	872.818542
3.189000	874.725559
3.190000	876.008158
3.191000	878.713068
3.192000	882.702764
3.193000	883.176089
3.194000	885.415045
3.195000	888.285097
3.196000	889.716437
3.197000	891.631141
3.198000	893.060974
3.199000	894.814065
3.200000	896.569823
3.201000	899.123325
3.202000	900.554168
3.203000	901.675651
3.204000	902.464184
3.205000	902.949718
3.206000	906.139334
3.207000	905.656815
3.208000	906.615840
3.209000	907.891249
3.210000	908.052200
3.211000	908.690997
3.212000	909.812149
3.213000	909.330292
3.214000	911.721336
3.215000	911.244333
3.216000	910.447600
3.217000	912.041067
3.218000	910.765657
3.219000	911.083714
3.220000	912.202861
3.221000	910.291503
3.222000	910.932471
3.223000	911.565239
3.224000	909.181732
3.225000	910.294352
3.226000	907.427316
3.227000	907.106244
3.228000	905.827820
3.229000	906.468622
3.230000	904.404348
3.231000	904.084783
3.232000	901.057293
3.233000	900.267418
3.234000	898.825361
3.235000	898.194613
3.236000	895.480658
3.237000	894.685267
3.238000	892.455852
3.239000	891.180442
3.240000	890.709800
3.241000	888.157309
3.242000	886.562667
3.243000	883.700152
3.244000	883.069057
3.245000	881.472576
3.246000	877.806635
3.247000	875.254807
3.248000	873.504068
3.249000	871.438121
3.250000	868.892487
3.251000	867.298524
3.252000	863.474300
3.253000	861.728581
3.254000	859.015802
3.255000	856.472520
3.256000	853.124290
3.257000	851.850885
3.258000	848.984709
3.259000	846.751616
3.260000	845.166681
3.261000	841.818798
3.262000	840.226839
3.263000	836.562224
3.264000	833.540771
3.265000	832.424308
3.266000	829.240224
3.267000	827.012814
3.268000	824.464000
3.269000	821.271716
3.270000	820.163784
3.271000	816.504868
3.272000	814.748778
3.273000	812.363598
3.274000	809.817135
3.275000	807.743138
3.276000	805.520929
3.277000	801.214849
3.278000	800.101235
3.279000	798.191550
3.280000	794.843154
3.281000	792.622783
3.282000	789.267032
3.283000	787.528004
3.284000	786.411375
3.285000	783.868591
3.286000	781.796283
3.287000	779.887095
3.288000	776.537373
3.289000	776.224170
3.290000	773.514405
3.291000	770.649539
3.292000	768.417954
3.293000	765.715048
3.294000	764.119908
3.295000	762.846172
3.296000	761.419354
3.297000	758.869033
3.298000	756.475653
3.299000	753.133286
3.300000	752.660805
3.301000	751.701780
3.302000	748.998377
3.303000	746.924893
3.304000	744.693473
3.305000	743.739633
3.306000	741.187639
3.307000	740.393920
3.308000	738.325456
3.309000	735.454907
3.310000	735.614184
3.311000	734.021562
3.312000	733.389623
3.313000	731.312461
3.314000	729.720336
3.315000	729.400937
3.316000	727.011235
3.317000	725.893098
3.318000	724.939092
3.319000	723.983579
3.320000	722.714199
3.321000	721.271976
3.322000	721.122903
3.323000	719.365306
3.324000	719.048756
3.325000	717.449095
3.326000	715.541249
3.327000	714.264332
3.328000	715.064246
3.329000	713.950118
3.330000	713.626048
3.331000	713.946275
3.332000	711.394446
3.333000	712.036922
3.334000	710.754820
3.335000	710.918785
3.336000	710.441948
3.337000	710.758166
3.338000	710.438602
3.339000	710.281495
3.340000	709.799473
3.341000	709.004744
3.342000	709.475220
3.343000	708.999393
3.344000	707.888446
3.345000	708.203157
3.346000	709.470698
3.347000	706.924568
3.348000	707.880744
3.349000	707.882251
3.350000	706.604837
3.351000	708.200474
3.352000	706.443540
3.353000	706.918372
3.354000	705.645133
3.355000	705.802903
3.356000	705.477822
3.357000	705.645299
3.358000	703.888365
3.359000	703.727249
3.360000	704.525987
3.361000	704.043799
3.362000	704.204252
3.363000	703.883346
3.364000	704.041281
3.365000	702.447649
3.366000	702.923310
3.367000	702.759511
3.368000	703.713351
3.369000	703.238518
3.370000	702.925315
3.371000	701.799476
3.372000	702.283337
3.373000	703.555234
3.374000	702.431068
3.375000	702.425883
3.376000	703.070694
3.377000	703.548707
3.378000	701.790597
3.379000	704.976701
3.380000	703.860403
3.381000	702.901710
3.382000	703.057972
3.383000	703.054626
3.384000	703.851525
3.385000	703.850515
3.386000	704.325845
3.387000	704.005949
3.388000	705.120408
3.389000	705.592541
3.390000	706.381919
3.391000	707.188691
3.392000	707.344622
3.393000	708.138672
3.394000	706.382416
3.395000	708.447022
3.396000	708.601280
3.397000	710.029439
3.398000	711.464126
3.399000	710.669563
3.400000	711.933923
3.401000	712.090864
3.402000	712.719276
3.403000	713.673282
3.404000	713.673779
3.405000	713.659384
3.406000	716.053096
3.407000	715.255021
3.408000	715.719302
3.409000	717.151818
3.410000	718.583987
3.411000	718.259900
3.412000	719.212564
3.413000	720.153682
3.414000	719.834284
3.415000	719.671313
3.416000	720.145798
3.417000	723.165586
3.418000	723.800193
3.419000	725.072421
3.420000	723.945406
3.421000	724.573487
3.422000	725.366361
3.423000	727.437840
3.424000	728.229041
3.425000	728.860633
3.426000	730.285115
3.427000	730.114789
3.428000	731.868030
3.429000	732.663256
3.430000	732.497105
3.431000	735.039723
3.432000	735.512370
3.433000	735.827578
3.434000	737.893194
3.435000	738.362660
3.436000	739.475611
3.437000	740.428607
3.438000	740.417890
3.439000	740.261612
3.440000	743.115429
3.441000	743.751709
3.442000	743.108058
3.443000	742.625026
3.444000	745.966548
3.445000	746.918881
3.446000	746.428643
3.447000	748.181055
3.448000	749.771009
3.449000	751.036877
3.450000	750.873907
3.451000	751.978990
3.452000	752.939854
3.453000	754.050288
3.454000	754.360627
3.455000	755.629012
3.456000	756.899055
3.457000	758.329219
3.458000	759.116245
3.459000	760.065729
3.460000	760.854428
3.461000	760.690960
3.462000	762.127154
3.463000	764.032814
3.464000	764.661060
3.465000	766.731695
3.466000	767.361780
3.467000	768.150645
3.468000	769.898369
3.469000	768.940338
3.470000	770.685048
3.471000	772.916799
3.472000	773.226490
3.473000	775.129135
3.474000	775.760562
3.475000	775.282217
3.476000	777.025420
3.477000	777.337116
3.478000	780.517688
3.479000	779.877714
3.480000	782.102276
3.481000	782.253850
3.482000	783.206514
3.483000	785.585997
3.484000	786.535480
3.485000	787.327526
3.486000	788.753002
3.487000	790.184524
3.488000	790.332752
3.489000	791.441181
3.490000	791.438664
3.491000	794.298495
3.492000	796.359092
3.493000	795.398891
3.494000	796.032653
3.495000	797.616412
3.496000	799.518892
3.497000	800.789447
3.498000	801.255733
3.499000	801.095777
3.500000	802.201523
3.501000	803.311957
3.502000	803.138782
3.503000	805.206568
3.504000	806.949439
3.505000	806.309134
3.506000	806.138626
3.507000	806.771063
3.508000	808.201725
3.509000	809.778278
3.510000	808.978033
3.511000	809.449504
3.512000	810.397978
3.513000	811.824298
3.514000	810.225134
3.515000	811.166418
3.516000	812.592392
3.517000	813.225491
3.518000	814.334418
3.519000	813.528640
3.520000	813.207900
3.521000	814.946248
3.522000	815.258608
3.523000	815.885015
3.524000	816.682411
3.525000	817.468095
3.526000	816.660811
3.527000	818.402671
3.528000	817.276832
3.529000	818.382744
3.530000	817.098622
3.531000	819.959795
3.532000	821.066385
3.533000	819.148319
3.534000	820.092949
3.535000	820.723366
3.536000	821.347090
3.537000	822.778430
3.538000	823.094301
3.539000	821.643878
3.540000	822.272953
3.541000	823.218924
3.542000	824.328017
3.543000	823.996062
3.544000	824.467201
3.545000	824.619951
3.546000	823.970436
3.547000	823.487073
3.548000	824.599843
3.549000	824.108776
3.550000	824.412107
3.551000	824.562340
3.552000	824.079307
3.553000	824.388155
3.554000	825.975592
3.555000	826.286775
3.556000	824.692298
3.557000	824.203915
3.558000	824.187002
3.559000	825.301959
3.560000	824.809219
3.561000	825.279017
3.562000	824.478258
3.563000	823.514877
3.564000	825.418698
3.565000	824.455482
3.566000	823.651212
3.567000	823.804294
3.568000	823.002873
3.569000	822.672591
3.570000	823.465134
3.571000	820.912974
3.572000	822.175661
3.573000	822.169631
3.574000	822.004656
3.575000	822.469269
3.576000	820.873616
3.577000	820.554383
3.578000	821.654281
3.579000	819.579787
3.580000	820.692573
3.581000	820.688548
3.582000	821.005263
3.583000	820.362788
3.584000	819.242631
3.585000	820.985336
3.586000	820.497616
3.587000	821.133399
3.588000	820.653878
3.589000	819.854462
3.590000	820.163656
3.591000	820.001183
3.592000	820.309699
3.593000	819.984783
3.594000	817.910786
3.595000	816.950751
3.596000	817.429427
3.597000	816.618630
3.598000	816.133593
3.599000	814.535936
3.600000	815.646204
3.601000	814.367615
3.602000	813.247623
3.603000	812.440686
3.604000	811.804903
3.605000	810.841190
3.606000	810.517766
3.607000	810.040929
3.608000	808.916929
3.609000	807.474208
3.610000	807.153468
3.611000	807.468676
3.612000	806.980293
3.613000	805.866165
3.614000	803.628716
3.615000	805.859804
3.616000	804.418074
3.617000	801.871099
3.618000	803.617316
3.619000	803.934379
3.620000	805.051340
3.621000	805.055700
3.622000	804.252602
3.623000	804.249587
3.624000	804.413055
3.625000	804.255948
3.626000	805.372577
3.627000	805.526835
3.628000	803.930188
3.629000	804.098676
3.630000	803.935208
3.631000	804.893570
3.632000	803.774257
3.633000	802.978534
3.634000	802.817071
3.635000	802.982543
3.636000	803.778282
3.637000	802.821593
3.638000	801.706471
3.639000	801.072527
3.640000	801.072527
3.641000	800.914923
3.642000	799.955567
3.643000	798.043033
3.644000	797.244129
3.645000	797.411606
3.646000	797.410943
3.647000	794.865144
3.648000	793.586057
3.649000	794.383966
3.650000	792.472940
3.651000	791.046785
3.652000	790.094784
3.653000	789.127559
3.654000	788.819374
3.655000	787.061446
3.656000	785.472999
3.657000	783.722260
3.658000	781.964165
3.659000	781.335406
3.660000	778.945041
3.661000	778.630164
3.662000	776.882108
3.663000	775.126184
3.664000	774.495421
3.665000	771.943261
3.666000	772.268689
3.667000	768.763533
3.668000	767.168891
3.669000	765.581951
3.670000	764.147265
3.671000	763.673111
3.672000	761.606832
3.673000	758.584362
3.674000	759.060867
3.675000	757.149841
3.676000	754.290507
3.677000	753.008902
3.678000	751.101901
3.679000	749.034446
3.680000	748.239552
3.681000	744.732557
3.682000	743.144608
3.683000	741.075314
3.684000	739.169820
3.685000	738.053688
3.686000	735.667000
3.687000	735.185823
3.688000	733.279484
3.689000	729.456603
3.690000	727.865985
3.691000	725.480308
3.692000	724.367190
3.693000	722.144468
3.694000	720.868893
3.695000	718.637473
3.696000	715.938079
3.697000	714.500047
3.698000	713.071887
3.699000	712.439632
3.700000	709.568238
3.701000	708.140410
3.702000	706.704216
3.703000	705.115604
3.704000	703.679244
3.705000	701.136128
3.706000	700.182122
3.707000	697.955722
3.708000	696.364095
3.709000	694.932589
3.710000	693.656848
3.711000	693.342303
3.712000	691.591232
3.713000	688.245684
3.714000	687.297709
3.715000	685.227240
3.716000	683.153423
3.717000	681.878014
3.718000	680.128616
3.719000	678.859568
3.720000	676.790441
3.721000	675.357759
3.722000	673.449250
3.723000	672.173675
3.724000	670.272356
3.725000	669.314175
3.726000	667.083750
3.727000	665.334187
3.728000	664.857349
3.729000	661.663724
3.730000	660.083477
3.731000	658.331909
3.732000	657.374889
3.733000	656.102494
3.734000	654.835450
3.735000	653.564729
3.736000	652.292335
3.737000	650.536908
3.738000	648.307161
3.739000	647.514950
3.740000	644.962956
3.741000	643.374343
3.742000	642.580625
3.743000	642.418333
3.744000	640.352204
3.745000	637.642440
3.746000	638.440846
3.747000	636.373226
3.748000	634.615960
3.749000	634.468229
3.750000	633.504185
3.751000	632.392740
3.752000	630.481548
3.753000	630.646855
3.754000	630.325120
3.755000	627.138519
3.756000	627.143372
3.757000	626.506927
3.758000	624.752841
3.759000	624.115054
3.760000	623.169248
3.761000	623.010799
3.762000	622.047765
3.763000	620.457811
3.764000	620.618264
3.765000	619.665102
3.766000	618.550478
3.767000	617.909675
3.768000	616.799904
3.769000	616.803929
3.770000	617.120479
3.771000	615.052014
3.772000	613.932205
3.773000	614.100692
3.774000	611.388079
3.775000	611.866423
3.776000	610.114342
3.777000	610.594360
3.778000	610.117191
3.779000	608.363438
3.780000	608.051244
3.781000	607.569719
3.782000	606.933439
3.783000	605.659869
3.784000	605.339973
3.785000	604.553278
3.786000	605.190900
3.787000	602.958139
3.788000	602.800369
3.789000	601.361326
3.790000	600.091599
3.791000	600.731241
3.792000	598.659430
3.793000	596.906008
3.794000	595.631940
3.795000	594.520330
3.796000	594.513969
3.797000	593.408555
3.798000	592.290252
3.799000	591.497197
3.800000	589.265612
3.801000	590.069534
3.802000	587.516380
3.803000	585.930948
3.804000	584.179033
3.805000	583.225027
3.806000	581.149538
3.807000	580.362346
3.808000	579.245717
3.809000	577.972644
3.810000	576.855849
3.811000	574.788892
3.812000	573.987139
3.813000	573.513482
3.814000	573.829369
3.815000	571.604974
3.816000	572.404556
3.817000	570.173633
3.818000	570.652475
3.819000	569.378242
3.820000	569.529982
3.821000	569.857249
3.822000	569.698967
3.823000	569.057999
3.824000	568.415026
3.825000	568.736761
3.826000	568.741117
3.827000	569.216447
3.828000	570.487500
3.829000	571.450037
3.830000	572.079128
3.831000	572.714910
3.832000	573.515653
3.833000	573.826686
3.834000	575.582444
3.835000	576.059945
3.836000	578.290867
3.837000	580.359332
3.838000	580.042103
3.839000	580.194356
3.840000	582.104207
3.841000	583.218500
3.842000	585.442217
3.843000	585.925747
3.844000	586.559012
3.845000	588.788759
3.846000	591.660318
3.847000	592.449182
3.848000	593.885376
3.849000	595.316551
3.850000	597.383840
3.851000	599.292017
3.852000	599.131895
3.853000	600.399270
3.854000	603.270995
3.855000	604.706179
3.856000	604.699155
3.857000	606.132168
3.858000	606.611341
3.859000	609.319432
3.860000	610.909221
3.861000	611.065484
3.862000	613.296074
3.863000	612.016640
3.864000	614.563781
3.865000	614.887521
3.866000	614.721882
3.867000	616.793030
3.868000	617.751045
3.869000	618.707056
3.870000	619.820173
3.871000	619.975608
3.872000	618.058385
3.873000	620.130196
3.874000	620.451434
3.875000	622.043061
3.876000	620.773334
3.877000	621.728682
3.878000	621.881764
3.879000	619.012557
3.880000	621.085875
3.881000	621.409615
3.882000	621.882775
3.883000	620.927592
3.884000	619.816314
3.885000	621.401581
3.886000	619.973587
3.887000	620.130859
3.888000	618.695328
3.889000	618.542081
3.890000	619.973421
3.891000	617.583221
3.892000	618.222682
3.893000	618.539397
3.894000	617.425618
3.895000	617.270183
3.896000	614.555731
3.897000	614.403147
3.898000	614.235504
3.899000	612.804329
3.900000	611.849313
3.901000	612.014620
3.902000	610.104770
3.903000	610.418983
3.904000	608.829692
3.905000	608.828184
3.906000	607.557132
3.907000	606.280215
3.908000	605.806227
3.909000	604.050468
3.910000	602.937848
3.911000	601.343719
3.912000	600.069817
3.913000	598.803105
3.914000	595.455719
3.915000	594.979726
3.916000	593.543367
3.917000	590.681681
3.918000	590.374507
3.919000	588.776187
3.920000	587.659558
3.921000	585.589420
3.922000	583.842027
3.923000	581.606930
3.924000	579.219745
3.925000	577.952370
3.926000	576.199957
3.927000	574.131327
3.928000	572.217964
3.929000	570.311460
3.930000	567.764832
3.931000	564.099389
3.932000	562.666873
3.933000	559.487643
3.934000	558.544189
3.935000	554.718458
3.936000	550.420081
3.937000	547.237836
3.938000	543.737700
3.939000	540.554958
3.940000	536.574472
3.941000	533.554519
3.942000	526.393959
3.943000	522.575118
3.944000	518.119303
3.945000	513.986067
3.946000	505.863980
3.947000	502.364175
3.948000	497.591478
3.949000	490.110690
3.950000	485.339833
3.951000	479.769227
3.952000	472.131167
3.953000	465.124367
3.954000	460.836376
3.955000	451.447908
3.956000	444.762512
3.957000	439.997021
3.958000	432.355449
3.959000	424.556604
3.960000	419.627645
3.961000	411.995432
3.962000	404.028447
3.963000	396.549664
3.964000	390.190872
3.965000	381.591269
3.966000	376.512906
3.967000	367.912972
3.968000	360.118483
3.969000	352.480754
3.970000	345.156576
3.971000	335.928396
3.972000	328.932148
3.973000	321.772440
3.974000	312.542421
3.975000	304.744917
3.976000	298.545900
3.977000	290.107594
3.978000	282.148297
3.979000	274.515934
3.980000	267.671261
3.981000	260.353941
3.982000	252.711359
3.983000	246.828228
3.984000	240.465411
3.985000	236.004411
3.986000	227.566271
3.987000	223.594664
3.988000	216.433938
3.989000	210.704055
3.990000	205.137806
3.991000	200.207505
3.992000	194.152375
3.993000	187.788383
3.994000	183.496367
3.995000	179.033527
3.996000	174.265519
3.997000	169.170408
3.998000	163.443702
3.999000	158.348426
