BioWare Version 5.3.0.7 Export
Device:	4827094 9260AA6	4827095 9260AA6
Samples (#):	5000	5000
Rate (Hz):	1000.000000	1000.000000
Contact period start (sample #):	0	0
Contact period end (sample #):	4999	4999
Contact period start time (s):	0.000000	0.000000
Contact period end time (s):	4.999000	4.999000
First sample time (s):	0.000000	0.000000
Normalized force (N):	11.393100	11.393100
Normalized length (m):	1.000000	1.000000
File Information
Date	Jun 15
Name	
ID	
Classification	
Description	
abs time (s)	Fz	Fz
	N	N
0.000000    778.494270
0.001000    779.124023
0.002000    779.756129
0.003000    778.484894
0.004000    780.402945
0.005000    778.169686
0.006000    779.454968
0.007000    780.720836
0.008000    778.809478
0.009000    780.081044
0.010000    779.133731
0.011000    779.766830
0.012000    780.078361
0.013000    781.038728
0.014000    780.720836
0.015000    779.763816
0.016000    780.392906
0.017000    780.078692
0.018000    780.399930
0.019000    780.403276
0.020000    780.081707
0.021000    779.448939
0.022000    779.767493
0.023000    781.669144
0.024000    781.675505
0.025000    778.803780
0.026000    779.124686
0.027000    778.164651
0.028000    778.488904
0.029000    779.128696
0.030000    781.668812
0.031000    777.531220
0.032000    778.807458
0.033000    780.714144
0.034000    779.115974
0.035000    780.082370
0.036000    779.439563
0.037000    781.346912
0.038000    780.085385
0.039000    780.399598
0.040000    779.111302
0.041000    780.079024
0.042000    781.030015
0.043000    779.748079
0.044000    779.755103
0.045000    778.790727
0.046000    777.524859
0.047000    780.066965
0.048000    779.430519
0.049000    779.115974
0.050000    780.387539
0.051000    778.472835
0.052000    779.112296
0.053000    780.708114
0.054000    779.108618
0.055000    777.512469
0.056000    780.380847
0.057000    779.421143
0.058000    779.430519
0.059000    780.698738
0.060000    778.473167
0.061000    778.791721
0.062000    778.791058
0.063000    780.059609
0.064000    781.019645
0.065000    779.734694
0.066000    781.970636
0.067000    779.102589
0.068000    780.059609
0.069000    778.785029
0.070000    778.148914
0.071000    780.049902
0.072000    778.781351
0.073000    779.099243
0.074000    779.417134
0.075000    779.741718
0.076000    777.503093
0.077000    778.778005
0.078000    778.456436
0.079000    781.010932
0.080000    779.099243
0.081000    779.728664
0.082000    778.778336
0.083000    778.132515
0.084000    779.408090
0.085000    779.086189
0.086000    778.456767
0.087000    778.771644
0.088000    778.765946
0.089000    778.128837
0.090000    778.767966
0.091000    779.085858
0.092000    777.175163
0.093000    778.764289
0.094000    777.496400
0.095000    779.719620
0.096000    777.168470
0.097000    778.755576
0.098000    777.817307
0.099000    777.486362
0.100000    778.762600
0.101000    777.172148
0.102000    776.523312
0.103000    778.126485
0.104000    776.221488
0.105000    776.844549
0.106000    776.218474
0.107000    776.840872
0.108000    776.523312
0.109000    775.565297
0.110000    778.758590
0.111000    775.890544
0.112000    775.883520
0.113000    775.883188
0.114000    776.198728
0.115000    774.926831
0.116000    774.604930
0.117000    775.565960
0.118000    776.204757
0.119000    776.522649
0.120000    776.846901
0.121000    774.611622
0.122000    776.841203
0.123000    776.516951
0.124000    777.477649
0.125000    776.513273
0.126000    777.159095
0.127000    776.195382
0.128000    776.201743
0.129000    775.562945
0.130000    774.926499
0.131000    776.516951
0.132000    776.835174
0.133000    775.883851
0.134000    776.838520
0.135000    774.293731
0.136000    774.280346
0.137000    775.241376
0.138000    774.287701
0.139000    775.881168
0.140000    777.155417
0.141000    776.516288
0.142000    773.969810
0.143000    774.923484
0.144000    775.867120
0.145000    774.599232
0.146000    774.281009
0.147000    776.520297
0.148000    776.191704
0.149000    775.231669
0.150000    776.504892
0.151000    773.645226
0.152000    774.914109
0.153000    773.327335
0.154000    773.963449
0.155000    774.599895
0.156000    774.910762
0.157000    775.241376
0.158000    774.599563
0.159000    775.235015
0.160000    776.507244
0.161000    777.150050
0.162000    777.467279
0.163000    774.911094
0.164000    774.287038
0.165000    775.873812
0.166000    775.553901
0.167000    774.908079
0.168000    776.189352
0.169000    774.920801
0.170000    774.911425
0.171000    775.553901
0.172000    777.143026
0.173000    775.229317
0.174000    775.235346
0.175000    776.193030
0.176000    775.547208
0.177000    776.186337
0.178000    776.823115
0.179000    776.504560
0.180000    774.275311
0.181000    776.514930
0.182000    776.196376
0.183000    775.238361
0.184000    775.875138
0.185000    776.186669
0.186000    776.835174
0.187000    775.868446
0.188000    775.865431
0.189000    776.510921
0.190000    776.507575
0.191000    774.911757
0.192000    775.553238
0.193000    776.831827
0.194000    776.193030
0.195000    777.779472
0.196000    775.865100
0.197000    776.187332
0.198000    774.271965
0.199000    776.826129
0.200000    776.190347
0.201000    776.500883
0.202000    776.505223
0.203000    776.510921
0.204000    775.553901
0.205000    778.094349
0.206000    776.189352
0.207000    775.862416
0.208000    774.268950
0.209000    774.580480
0.210000    774.904733
0.211000    773.311266
0.212000    776.189684
0.213000    773.950727
0.214000    774.596549
0.215000    774.589856
0.216000    775.865763
0.217000    775.540847
0.218000    775.862416
0.219000    775.865431
0.220000    777.140343
0.221000    775.859070
0.222000    775.540516
0.223000    776.176630
0.224000    777.144021
0.225000    775.223287
0.226000    775.222956
0.227000    775.222956
0.228000    775.541179
0.229000    775.865763
0.230000    776.183986
0.231000    775.862085
0.232000    775.548203
0.233000    777.134314
0.234000    775.544525
0.235000    775.551217
0.236000    775.213249
0.237000    775.538495
0.238000    777.462244
0.239000    776.180639
0.240000    775.550223
0.241000    777.137660
0.242000    774.580812
0.243000    777.134645
0.244000    775.220273
0.245000    775.226965
0.246000    775.856055
0.247000    776.170932
0.248000    776.495516
0.249000    775.541179
0.250000    776.176962
0.251000    777.766750
0.252000    777.773443
0.253000    777.131962
0.254000    776.813076
0.255000    776.810061
0.256000    777.770760
0.257000    776.166591
0.258000    775.217589
0.259000    776.167917
0.260000    774.581143
0.261000    776.501214
0.262000    777.133982
0.263000    774.583164
0.264000    775.537501
0.265000    776.170601
0.266000    777.137991
0.267000    777.767413
0.268000    776.812745
0.269000    778.405879
0.270000    775.855724
0.271000    776.494522
0.272000    777.130967
0.273000    775.859070
0.274000    777.449190
0.275000    776.815428
0.276000    776.816754
0.277000    775.858739
0.278000    776.170269
0.279000    776.494522
0.280000    775.540847
0.281000    778.083979
0.282000    775.537833
0.283000    775.852046
0.284000    775.536838
0.285000    775.852378
0.286000    776.167586
0.287000    775.537833
0.288000    775.539853
0.289000    776.180308
0.290000    777.129973
0.291000    776.176299
0.292000    776.812082
0.293000    776.176962
0.294000    776.809067
0.295000    776.176630
0.296000    776.491507
0.297000    774.575477
0.298000    775.527131
0.299000    775.212586
0.300000    776.809398
0.301000    774.904733
0.302000    772.675152
0.303000    775.857744
0.304000    775.851715
0.305000    778.091003
0.306000    774.904733
0.307000    775.533492
0.308000    775.861091
0.309000    775.543531
0.310000    777.772117
0.311000    775.222293
0.312000    776.497868
0.313000    774.901055
0.314000    775.858076
0.315000    775.858407
0.316000    774.900392
0.317000    775.536507
0.318000    775.532829
0.319000    774.257254
0.320000    775.222293
0.321000    775.208908
0.322000    775.224645
0.323000    775.533160
0.324000    776.175636
0.325000    775.533160
0.326000    776.497205
0.327000    774.579155
0.328000    775.858407
0.329000    775.542536
0.330000    776.483820
0.331000    775.533492
0.332000    774.582501
0.333000    776.171958
0.334000    774.576140
0.335000    775.214937
0.336000    775.539853
0.337000    776.496542
0.338000    774.900061
0.339000    776.817780
0.340000    776.489849
0.341000    775.535844
0.342000    776.493859
0.343000    774.893368
0.344000    775.214275
0.345000    776.178319
0.346000    774.572131
0.347000    774.893368
0.348000    774.576471
0.349000    774.902744
0.350000    773.938700
0.351000    775.221630
0.352000    776.177325
0.353000    774.905427
0.354000    774.264278
0.355000    776.175304
0.356000    775.223982
0.357000    774.270639
0.358000    774.902744
0.359000    775.857081
0.360000    774.263283
0.361000    772.981679
0.362000    773.942046
0.363000    774.581506
0.364000    774.903407
0.365000    775.857081
0.366000    774.263615
0.367000    774.902744
0.368000    776.496210
0.369000    774.591214
0.370000    776.814433
0.371000    776.181665
0.372000    777.768108
0.373000    772.998410
0.374000    776.496210
0.375000    776.499557
0.376000    774.588199
0.377000    777.459592
0.378000    774.598569
0.379000    775.224645
0.380000    776.181334
0.381000    775.541873
0.382000    777.456246
0.383000    777.777152
0.384000    775.213943
0.385000    777.135008
0.386000    776.502903
0.387000    775.548566
0.388000    777.138686
0.389000    777.144715
0.390000    774.906422
0.391000    776.188026
0.392000    779.370950
0.393000    775.227328
0.394000    775.545882
0.395000    777.466284
0.396000    777.138354
0.397000    779.370618
0.398000    777.132656
0.399000    778.734835
0.400000    778.102399
0.401000    776.826824
0.402000    777.148724
0.403000    777.135671
0.404000    776.200417
0.405000    776.823809
0.406000    779.056736
0.407000    778.420290
0.408000    776.188358
0.409000    778.732152
0.410000    778.099384
0.411000    777.463270
0.412000    777.778478
0.413000    777.784176
0.414000    777.466284
0.415000    777.138686
0.416000    777.470294
0.417000    777.145710
0.418000    778.738182
0.419000    777.135671
0.420000    779.066443
0.421000    779.056736
0.422000    778.741859
0.423000    776.827487
0.424000    778.099053
0.425000    776.182660
0.426000    778.416944
0.427000    777.139017
0.428000    776.818443
0.429000    779.377974
0.430000    777.784176
0.431000    776.820794
0.432000    778.744543
0.433000    777.145710
0.434000    777.469962
0.435000    777.142363
0.436000    776.194387
0.437000    776.509264
0.438000    776.508932
0.439000    778.430329
0.440000    775.234683
0.441000    780.338009
0.442000    778.430992
0.443000    777.784839
0.444000    776.512942
0.445000    775.883520
0.446000    777.463601
0.447000    776.823809
0.448000    776.188358
0.449000    777.781161
0.450000    774.912783
0.451000    775.240050
0.452000    777.787854
0.453000    774.593897
0.454000    777.148061
0.455000    775.233026
0.456000    775.544888
0.457000    776.512279
0.458000    776.508601
0.459000    775.551249
0.460000    776.191041
0.461000    775.234683
0.462000    775.868477
0.463000    775.868477
0.464000    776.187695
0.465000    775.868809
0.466000    774.275342
0.467000    775.856418
0.468000    773.951421
0.469000    774.282035
0.470000    775.545219
0.471000    776.180339
0.472000    776.177325
0.473000    774.279683
0.474000    774.911457
0.475000    776.819800
0.476000    773.957451
0.477000    774.272328
0.478000    773.314976
0.479000    774.586541
0.480000    773.950427
0.481000    772.990392
0.482000    773.635882
0.483000    773.635882
0.484000    772.999767
0.485000    773.317659
0.486000    774.271996
0.487000    773.304605
0.488000    773.313981
0.489000    774.265304
0.490000    775.550586
0.491000    774.587204
0.492000    773.314976
0.493000    774.270670
0.494000    774.907779
0.495000    773.314644
0.496000    775.540216
0.497000    773.950759
0.498000    773.314976
0.499000    773.940720
0.500000    774.261295
0.501000    773.628858
0.502000    773.311629
0.503000    774.261958
0.504000    773.947412
0.505000    775.212286
0.506000    773.947081
0.507000    773.314313
0.508000    773.622828
0.509000    773.615804
0.510000    774.267656
0.511000    775.225008
0.512000    772.669154
0.513000    772.986383
0.514000    772.986383
0.515000    773.307620
0.516000    773.307289
0.517000    775.219310
0.518000    774.579186
0.519000    775.530509
0.520000    774.258280
0.521000    773.622497
0.522000    776.172321
0.523000    774.907448
0.524000    773.622165
0.525000    775.861122
0.526000    775.530509
0.527000    773.621503
0.528000    775.540879
0.529000    774.254934
0.530000    775.848069
0.531000    776.172984
0.532000    774.585878
0.533000    774.254934
0.534000    776.172321
0.535000    775.851415
0.536000    774.900755
0.537000    775.850420
0.538000    776.497899
0.539000    777.126327
0.540000    775.212286
0.541000    775.215300
0.542000    775.218647
0.543000    773.942740
0.544000    774.890717
0.545000    776.175336
0.546000    776.489881
0.547000    775.853767
0.548000    775.217984
0.549000    775.212286
0.550000    774.257617
0.551000    776.166291
0.552000    777.125664
0.553000    775.533192
0.554000    776.493559
0.555000    777.450911
0.556000    776.490544
0.557000    777.125664
0.558000    775.848069
0.559000    774.575508
0.560000    778.407268
0.561000    777.125664
0.562000    776.487198
0.563000    775.532860
0.564000    775.530177
0.565000    775.856781
0.566000    777.119634
0.567000    777.443555
0.568000    778.079338
0.569000    776.489218
0.570000    776.168312
0.571000    776.492896
0.572000    778.397230
0.573000    775.529183
0.574000    777.758432
0.575000    776.807772
0.576000    776.804095
0.577000    777.761778
0.578000    777.129673
0.579000    775.844059
0.580000    776.488886
0.581000    776.807772
0.582000    777.439878
0.583000    775.539221
0.584000    775.531866
0.585000    778.083016
0.586000    777.446570
0.587000    776.810456
0.588000    776.804758
0.589000    775.856781
0.590000    777.128016
0.591000    777.125332
0.592000    778.728174
0.593000    777.764130
0.594000    779.357928
0.595000    776.164303
0.596000    778.079338
0.597000    778.081690
0.598000    777.121323
0.599000    777.442892
0.600000    776.806778
0.601000    778.079007
0.602000    778.079007
0.603000    779.039373
0.604000    777.436200
0.605000    778.708097
0.606000    778.074997
0.607000    778.714790
0.608000    778.390869
0.609000    775.840050
0.610000    776.164303
0.611000    777.760784
0.612000    777.125001
0.613000    776.164303
0.614000    777.118640
0.615000    777.436531
0.616000    778.082684
0.617000    777.124669
0.618000    778.395904
0.619000    778.079007
0.620000    777.442229
0.621000    778.072314
0.622000    775.515135
0.623000    777.443224
0.624000    776.796739
0.625000    777.436200
0.626000    778.068968
0.627000    776.474839
0.628000    777.110953
0.629000    778.072314
0.630000    777.753428
0.631000    776.478185
0.632000    778.064959
0.633000    776.476165
0.634000    776.786369
0.635000    778.067311
0.636000    776.793393
0.637000    776.156616
0.638000    778.392557
0.639000    776.793062
0.640000    776.799754
0.641000    774.563812
0.642000    776.156947
0.643000    776.789384
0.644000    777.422152
0.645000    778.070657
0.646000    776.471824
0.647000    776.788389
0.648000    776.795413
0.649000    775.193234
0.650000    777.421821
0.651000    778.382187
0.652000    777.429507
0.653000    778.700410
0.654000    777.099920
0.655000    776.146246
0.656000    778.706440
0.657000    780.621475
0.658000    779.017639
0.659000    779.336193
0.660000    776.142568
0.661000    776.785706
0.662000    776.461122
0.663000    777.746404
0.664000    776.779014
0.665000    778.056609
0.666000    778.060287
0.667000    774.548770
0.668000    776.464137
0.669000    776.460459
0.670000    775.818647
0.671000    774.867324
0.672000    775.506785
0.673000    777.410787
0.674000    777.096242
0.675000    776.462480
0.676000    776.463474
0.677000    777.404426
0.678000    775.499430
0.679000    776.774010
0.680000    776.457113
0.681000    776.141242
0.682000    775.171831
0.683000    776.131535
0.684000    777.412808
0.685000    775.809966
0.686000    775.174846
0.687000    775.492406
0.688000    774.542078
0.689000    775.491411
0.690000    775.174183
0.691000    777.081863
0.692000    776.446080
0.693000    775.816327
0.694000    776.770664
0.695000    777.084215
0.696000    774.534059
0.697000    774.531044
0.698000    774.851288
0.699000    773.894599
0.700000    774.845254
0.701000    775.803273
0.702000    775.805953
0.703000    777.402769
0.704000    773.894930
0.705000    774.203114
0.706000    774.205798
0.707000    774.209144
0.708000    776.448096
0.709000    774.848273
0.710000    774.209140
0.711000    778.034870
0.712000    775.480374
0.713000    773.572698
0.714000    775.801943
0.715000    776.758632
0.716000    776.117483
0.717000    774.201785
0.718000    775.487067
0.719000    772.926873
0.720000    775.158805
0.721000    775.484052
0.722000    774.834221
0.723000    776.110459
0.724000    775.158805
0.725000    774.523354
0.726000    774.512984
0.727000    774.195755
0.728000    773.562655
0.729000    776.428019
0.730000    773.244101
0.731000    774.526037
0.732000    775.159137
0.733000    775.474013
0.734000    776.751940
0.735000    775.789221
0.736000    777.057110
0.737000    774.191414
0.738000    775.791573
0.739000    776.744916
0.740000    776.108802
0.741000    777.702600
0.742000    776.109465
0.743000    775.785212
0.744000    773.234062
0.745000    777.059461
0.746000    777.699585
0.747000    775.470004
0.748000    775.466326
0.749000    775.801280
0.750000    776.111816
0.751000    775.141080
0.752000    776.102772
0.753000    776.423015
0.754000    776.095748
0.755000    776.422684
0.756000    775.784218
0.757000    776.108802
0.758000    774.833558
0.759000    777.685869
0.760000    776.734214
0.761000    777.688552
0.762000    777.691898
0.763000    776.423015
0.764000    777.056115
0.765000    776.091408
0.766000    775.140748
0.767000    777.055452
0.768000    776.731200
0.769000    776.724176
0.770000    775.134719
0.771000    776.728185
0.772000    775.138065
0.773000    775.776862
0.774000    777.052106
0.775000    776.737229
0.776000    775.459302
0.777000    777.042067
0.778000    775.767155
0.779000    776.721493
0.780000    776.406284
0.781000    777.684543
0.782000    775.134719
0.783000    776.098100
0.784000    778.002766
0.785000    777.035706
0.786000    777.366651
0.787000    775.766824
0.788000    776.081038
0.789000    774.815501
0.790000    776.727522
0.791000    777.042067
0.792000    777.684211
0.793000    778.324003
0.794000    777.362310
0.795000    778.635202
0.796000    777.366320
0.797000    777.366320
0.798000    777.681196
0.799000    776.722850
0.800000    778.001771
0.801000    777.680865
0.802000    774.814507
0.803000    776.726859
0.804000    776.077028
0.805000    777.041073
0.806000    777.361979
0.807000    777.038390
0.808000    777.352272
0.809000    776.719172
0.810000    777.361979
0.811000    775.758805
0.812000    774.807814
0.813000    776.089419
0.814000    777.355618
0.815000    777.673509
0.816000    777.679539
0.817000    777.683217
0.818000    776.715163
0.819000    776.085741
0.820000    777.676856
0.821000    777.683548
0.822000    776.086404
0.823000    777.669832
0.824000    775.760826
0.825000    777.355287
0.826000    776.403964
0.827000    775.446612
0.828000    776.394588
0.829000    776.083389
0.830000    777.990075
0.831000    777.036401
0.832000    774.476538
0.833000    776.079049
0.834000    776.708802
0.835000    775.757148
0.836000    774.158978
0.837000    777.349951
0.838000    776.069341
0.839000    774.157984
0.840000    776.387896
0.841000    775.431207
0.842000    776.715163
0.843000    775.755459
0.844000    776.075371
0.845000    775.751119
0.846000    775.125043
0.847000    775.757811
0.848000    777.040078
0.849000    779.580858
0.850000    776.072025
0.851000    776.077028
0.852000    774.483230
0.853000    776.710822
0.854000    777.347931
0.855000    776.390579
0.856000    776.708471
0.857000    777.343922
0.858000    777.036401
0.859000    776.390579
0.860000    776.403964
0.861000    776.711817
0.862000    776.712480
0.863000    777.029377
0.864000    776.400618
0.865000    779.901101
0.866000    778.953125
0.867000    777.347931
0.868000    777.987060
0.869000    777.030371
0.870000    776.390579
0.871000    777.036069
0.872000    774.488266
0.873000    774.800790
0.874000    775.764172
0.875000    777.993090
0.876000    776.708139
0.877000    776.714500
0.878000    777.042762
0.879000    776.711485
0.880000    775.442271
0.881000    777.353961
0.882000    776.727885
0.883000    777.350283
0.884000    776.713837
0.885000    775.448964
0.886000    775.124711
0.887000    776.399623
0.888000    776.392931
0.889000    777.362673
0.890000    775.766192
0.891000    777.678545
0.892000    776.409662
0.893000    775.764172
0.894000    776.084747
0.895000    776.399292
0.896000    773.855829
0.897000    775.128058
0.898000    777.995773
0.899000    775.128389
0.900000    774.490617
0.901000    774.819210
0.902000    775.770533
0.903000    778.000777
0.904000    777.680565
0.905000    776.721855
0.906000    775.454662
0.907000    775.445618
0.908000    774.809172
0.909000    773.855497
0.910000    777.360653
0.911000    774.810166
0.912000    776.730237
0.913000    774.173720
0.914000    775.131735
0.915000    776.407310
0.916000    776.730568
0.917000    776.412677
0.918000    774.498304
0.919000    775.131735
0.920000    777.373707
0.921000    775.448964
0.922000    776.727222
0.923000    777.687589
0.924000    776.412677
0.925000    774.813512
0.926000    775.775899
0.927000    776.416023
0.928000    775.780572
0.929000    775.782923
0.930000    775.455656
0.931000    776.412345
0.932000    776.419369
0.933000    775.147803
0.934000    776.101146
0.935000    775.153501
0.936000    776.416686
0.937000    775.140448
0.938000    776.419038
0.939000    776.423047
0.940000    776.094122
0.941000    776.101478
0.942000    776.740275
0.943000    775.786601
0.944000    775.464700
0.945000    775.147140
0.946000    777.694281
0.947000    774.833258
0.948000    776.108833
0.949000    774.511689
0.950000    775.475402
0.951000    774.190783
0.952000    775.785938
0.953000    776.107507
0.954000    776.422384
0.955000    777.383414
0.956000    777.067543
0.957000    775.785938
0.958000    775.147140
0.959000    774.832595
0.960000    776.739944
0.961000    778.654648
0.962000    776.750646
0.963000    776.114200
0.964000    776.747299
0.965000    775.471724
0.966000    775.474076
0.967000    776.753329
0.968000    776.432754
0.969000    775.479080
0.970000    777.707998
0.971000    777.707335
0.972000    778.028904
0.973000    777.065522
0.974000    777.700311
0.975000    777.074898
0.976000    777.078244
0.977000    777.383082
0.978000    778.671048
0.979000    779.301133
0.980000    778.029235
0.981000    778.982247
0.982000    776.757007
0.983000    778.665350
0.984000    779.298449
0.985000    781.541083
0.986000    780.262162
0.987000    778.979895
0.988000    779.940593
0.989000    780.576707
0.990000    779.934232
0.991000    780.573693
0.992000    778.987913
0.993000    778.672042
0.994000    779.620681
0.995000    781.216831
0.996000    781.223192
0.997000    783.448764
0.998000    782.495089
0.999000    781.862321
1.000000    781.217163
1.001000    782.177529
1.002000    782.495421
1.003000    783.761620
1.004000    782.816658
1.005000    782.817984
1.006000    784.093228
1.007000    783.778020
1.008000    783.132530
1.009000    783.775336
1.010000    786.325823
1.011000    786.005249
1.012000    787.607759
1.013000    786.648055
1.014000    785.372480
1.015000    785.697727
1.016000    786.962932
1.017000    787.293214
1.018000    787.602393
1.019000    785.698059
1.020000    788.570115
1.021000    787.931317
1.022000    789.207224
1.023000    787.931649
1.024000    789.534822
1.025000    790.800027
1.026000    788.257227
1.027000    790.161892
1.028000    790.489160
1.029000    792.394819
1.030000    790.490154
1.031000    790.172594
1.032000    790.811392
1.033000    790.808377
1.034000    790.811723
1.035000    792.084283
1.036000    791.450852
1.037000    791.137302
1.038000    791.451847
1.039000    791.776762
1.040000    792.412877
1.041000    792.091639
1.042000    791.776762
1.043000    794.330927
1.044000    793.053332
1.045000    794.011015
1.046000    794.021385
1.047000    793.703825
1.048000    794.018370
1.049000    795.940098
1.050000    797.215010
1.051000    795.609485
1.052000    794.344616
1.053000    797.537906
1.054000    796.266675
1.055000    797.217666
1.056000    797.853118
1.057000    799.443901
1.058000    798.500597
1.059000    799.139726
1.060000    799.464972
1.061000    800.422987
1.062000    797.554609
1.063000    799.781175
1.064000    799.144729
1.065000    801.381002
1.066000    801.063443
1.067000    801.063774
1.068000    800.749560
1.069000    802.664596
1.070000    801.389684
1.071000    802.996204
1.072000    804.583641
1.073000    803.940502
1.074000    804.580626
1.075000    801.722618
1.076000    804.918595
1.077000    804.594342
1.078000    804.591327
1.079000    805.555372
1.080000    806.191818
1.081000    806.824917
1.082000    803.645008
1.083000    804.917569
1.084000    806.835619
1.085000    805.557361
1.086000    804.298185
1.087000    806.203182
1.088000    805.889300
1.089000    806.210206
1.090000    807.798306
1.091000    803.021253
1.092000    805.575418
1.093000    805.892978
1.094000    805.251165
1.095000    804.306867
1.096000    805.578764
1.097000    803.664723
1.098000    805.261536
1.099000    802.390474
1.100000    803.035964
1.101000    803.356870
1.102000    802.711049
1.103000    801.767413
1.104000    801.767081
1.105000    803.042656
1.106000    801.127621
1.107000    803.036627
1.108000    800.489486
1.109000    801.131630
1.110000    800.817085
1.111000    797.945360
1.112000    797.620776
1.113000    797.617761
1.114000    798.260568
1.115000    797.948706
1.116000    795.083343
1.117000    794.761774
1.118000    796.352557
1.119000    795.391195
1.120000    795.395205
1.121000    794.119298
1.122000    794.125991
1.123000    793.161946
1.124000    791.253935
1.125000    792.526163
1.126000    791.575504
1.127000    789.979023
1.128000    789.978691
1.129000    788.064650
1.130000    787.428536
1.131000    787.117005
1.132000    786.473867
1.133000    786.476550
1.134000    784.880732
1.135000    785.198955
1.136000    783.605157
1.137000    783.605157
1.138000    784.559494
1.139000    782.326899
1.140000    780.742808
1.141000    781.687107
1.142000    780.418887
1.143000    778.175921
1.144000    778.186623
1.145000    777.225925
1.146000    779.464218
1.147000    778.181951
1.148000    776.268573
1.149000    776.900678
1.150000    776.271256
1.151000    774.032299
1.152000    772.133332
1.153000    774.041675
1.154000    773.399200
1.155000    773.720438
1.156000    773.080977
1.157000    771.799372
1.158000    770.526812
1.159000    769.576153
1.160000    770.215282
1.161000    768.934009
1.162000    769.248223
1.163000    767.654756
1.164000    767.343557
1.165000    766.061621
1.166000    763.511797
1.167000    765.746082
1.168000    764.788729
1.169000    764.146917
1.170000    763.189234
1.171000    764.145923
1.172000    762.546758
1.173000    762.549110
1.174000    761.277213
1.175000    761.589075
1.176000    761.591758
1.177000    759.040277
1.178000    761.279896
1.179000    758.720033
1.180000    758.398796
1.181000    759.352470
1.182000    758.403831
1.183000    756.489790
1.184000    757.761355
1.185000    757.121232
1.186000    755.532438
1.187000    753.931947
1.188000    753.934299
1.189000    752.977279
1.190000    751.699020
1.191000    752.979962
1.192000    752.976616
1.193000    751.057902
1.194000    751.064926
1.195000    749.786005
1.196000    747.228826
1.197000    747.855233
1.198000    745.628004
1.199000    744.041561
1.200000    744.670320
1.201000    744.351766
1.202000    742.115824
1.203000    740.207150
1.204000    740.531733
1.205000    739.250129
1.206000    737.013524
1.207000    737.969882
1.208000    734.777583
1.209000    733.494984
1.210000    733.176098
1.211000    732.854860
1.212000    730.942508
1.213000    729.349041
1.214000    727.113100
1.215000    725.837525
1.216000    722.643568
1.217000    723.914139
1.218000    718.488913
1.219000    718.813165
1.220000    718.486924
1.221000    714.022065
1.222000    713.371902
1.223000    710.496169
1.224000    708.575103
1.225000    705.383830
1.226000    705.068290
1.227000    701.228844
1.228000    698.991907
1.229000    695.169192
1.230000    693.250147
1.231000    691.645979
1.232000    688.767230
1.233000    683.982490
1.234000    683.342367
1.235000    677.273008
1.236000    675.036072
1.237000    672.156992
1.238000    668.316882
1.239000    663.850033
1.240000    661.609419
1.241000    657.132864
1.242000    651.391435
1.243000    647.869217
1.244000    644.671251
1.245000    640.194364
1.246000    637.635858
1.247000    630.277871
1.248000    627.718702
1.249000    623.576769
1.250000    617.814932
1.251000    614.945227
1.252000    609.189088
1.253000    603.437620
1.254000    599.606554
1.255000    593.533518
1.256000    589.686037
1.257000    583.628737
1.258000    579.142474
1.259000    576.901528
1.260000    568.598911
1.261000    564.764168
1.262000    559.972404
1.263000    554.211561
1.264000    549.107603
1.265000    541.120194
1.266000    538.242803
1.267000    532.802534
1.268000    524.823837
1.269000    520.986742
1.270000    517.467207
1.271000    511.390161
1.272000    504.690717
1.273000    499.262839
1.274000    493.192154
1.275000    488.400722
1.276000    484.553920
1.277000    477.224391
1.278000    471.144330
1.279000    468.267270
1.280000    461.249935
1.281000    458.679734
1.282000    449.108897
1.283000    446.858576
1.284000    439.519339
1.285000    434.094808
1.286000    428.980117
1.287000    423.234016
1.288000    417.485232
1.289000    413.972058
1.290000    408.537819
1.291000    401.192553
1.292000    396.719675
1.293000    391.626419
1.294000    386.513418
1.295000    381.711947
1.296000    375.320687
1.297000    369.584956
1.298000    364.786500
1.299000    361.910103
1.300000    353.935084
1.301000    350.104682
1.302000    344.353877
1.303000    339.240544
1.304000    334.773364
1.305000    331.575398
1.306000    325.505045
1.307000    323.901540
1.308000    314.965823
1.309000    311.767525
1.310000    304.747507
1.311000    303.782475
1.312000    298.354929
1.313000    292.927713
1.314000    291.015030
1.315000    285.904017
1.316000    280.797377
1.317000    276.648420
1.318000    273.766325
1.319000    270.251130
1.320000    266.096144
1.321000    261.940826
1.322000    258.110755
1.323000    255.238367
1.324000    252.687217
1.325000    249.804128
1.326000    246.289597
1.327000    244.688112
1.328000    238.937639
1.329000    238.938996
1.330000    235.425459
1.331000    232.552409
1.332000    230.001259
1.333000    227.430031
1.334000    226.476026
1.335000    222.010503
1.336000    222.002816
1.337000    219.760845
1.338000    218.812206
1.339000    217.202008
1.340000    215.610562
1.341000    215.286310
1.342000    212.729130
1.343000    211.138678
1.344000    209.536168
1.345000    209.210921
1.346000    208.250886
1.347000    209.512413
1.348000    209.511750
1.349000    207.594363
1.350000    208.551715
1.351000    207.903541
1.352000    206.939497
1.353000    208.539324
1.354000    207.902547
1.355000    209.166063
1.356000    211.395644
1.357000    212.025397
1.358000    210.428584
1.359000    212.662837
1.360000    212.661843
1.361000    212.971684
1.362000    214.886720
1.363000    217.428163
1.364000    218.379154
1.365000    220.612081
1.366000    220.297536
1.367000    224.426415
1.368000    225.386782
1.369000    228.885577
1.370000    230.480038
1.371000    231.745905
1.372000    232.390370
1.373000    235.887176
1.374000    237.478290
1.375000    240.983777
1.376000    242.568200
1.377000    245.441250
1.378000    248.306282
1.379000    250.851071
1.380000    251.172972
1.381000    254.989327
1.382000    259.454849
1.383000    263.593436
1.384000    265.187897
1.385000    267.417146
1.386000    270.591025
1.387000    271.555733
1.388000    276.331791
1.389000    279.513026
1.390000    283.972851
1.391000    286.202100
1.392000    287.159452
1.393000    290.339693
1.394000    296.395004
1.395000    297.985448
1.396000    301.791764
1.397000    304.985057
1.398000    307.854758
1.399000    311.991687
1.400000    315.179283
1.401000    320.290627
1.402000    321.559510
1.403000    327.296930
1.404000    329.540227
1.405000    335.588845
1.406000    336.543514
1.407000    340.366893
1.408000    344.517870
1.409000    346.741422
1.410000    353.120985
1.411000    354.715777
1.412000    358.864072
1.413000    363.325253
1.414000    365.565536
1.415000    369.396270
1.416000    374.183030
1.417000    377.689180
1.418000    380.882805
1.419000    384.706847
1.420000    388.533240
1.421000    391.399930
1.422000    394.281693
1.423000    398.109081
1.424000    402.578613
1.425000    407.362690
1.426000    409.923547
1.427000    413.429697
1.428000    417.902907
1.429000    422.368429
1.430000    426.516392
1.431000    430.980225
1.432000    434.813643
1.433000    438.325491
1.434000    443.755721
1.435000    449.822065
1.436000    454.613166
1.437000    459.078688
1.438000    465.142681
1.439000    468.654861
1.440000    475.681903
1.441000    481.736189
1.442000    487.481295
1.443000    495.153828
1.444000    499.296424
1.445000    507.923294
1.446000    514.310544
1.447000    522.287552
1.448000    529.946369
1.449000    538.252995
1.450000    543.988726
1.451000    552.931467
1.452000    559.958841
1.453000    567.937870
1.454000    575.915572
1.455000    585.166829
1.456000    594.430476
1.457000    602.097973
1.458000    612.955750
1.459000    622.843453
1.460000    632.737516
1.461000    642.001164
1.462000    652.549099
1.463000    662.440148
1.464000    671.705121
1.465000    684.781777
1.466000    694.368319
1.467000    705.228779
1.468000    716.729694
1.469000    726.955365
1.470000    743.225646
1.471000    752.814209
1.472000    766.547072
1.473000    779.642117
1.474000    794.007401
1.475000    808.708302
1.476000    822.752680
1.477000    837.443543
1.478000    850.550977
1.479000    864.920602
1.480000    880.257618
1.481000    898.135413
1.482000    913.786311
1.483000    928.808450
1.484000    946.050131
1.485000    962.344167
1.486000    978.000068
1.487000    994.917165
1.488000    1009.942650
1.489000    1029.104733
1.490000    1044.760635
1.491000    1059.772072
1.492000    1075.744870
1.493000    1090.124565
1.494000    1105.455220
1.495000    1118.559308
1.496000    1134.531444
1.497000    1145.714799
1.498000    1159.458348
1.499000    1174.789002
1.500000    1186.949124
1.501000    1201.002546
1.502000    1212.517840
1.503000    1229.438615
1.504000    1240.631014
1.505000    1254.049979
1.506000    1269.393356
1.507000    1280.579394
1.508000    1297.500169
1.509000    1309.967812
1.510000    1323.068223
1.511000    1336.470788
1.512000    1350.220035
1.513000    1364.900528
1.514000    1382.134522
1.515000    1396.496097
1.516000    1407.348537
1.517000    1417.557146
1.518000    1429.040004
1.519000    1442.439918
1.520000    1456.803876
1.521000    1470.189048
1.522000    1484.237467
1.523000    1497.319489
1.524000    1506.569751
1.525000    1519.658798
1.526000    1533.041980
1.527000    1546.439542
1.528000    1558.891148
1.529000    1568.776862
1.530000    1582.818588
1.531000    1594.290082
1.532000    1607.365743
1.533000    1618.218847
1.534000    1632.253881
1.535000    1642.151989
1.536000    1655.229671
1.537000    1667.347317
1.538000    1680.419301
1.539000    1690.311044
1.540000    1704.339386
1.541000    1716.785294
1.542000    1730.810952
1.543000    1744.206525
1.544000    1757.282518
1.545000    1771.317883
1.546000    1782.156940
1.547000    1795.877760
1.548000    1807.992723
1.549000    1820.109706
1.550000    1834.798248
1.551000    1847.220733
1.552000    1858.708957
1.553000    1873.055190
1.554000    1884.520985
1.555000    1896.332799
1.556000    1908.450106
1.557000    1919.932301
1.558000    1933.012666
1.559000    1942.897717
1.560000    1954.700155
1.561000    1965.857435
1.562000    1974.784471
1.563000    1986.910830
1.564000    1999.676981
1.565000    2007.010219
1.566000    2019.131543
1.567000    2027.749732
1.568000    2037.000689
1.569000    2045.934748
1.570000    2053.906784
1.571000    2063.482656
1.572000    2071.783285
1.573000    2081.030232
1.574000    2086.459468
1.575000    2095.078320
1.576000    2100.191684
1.577000    2107.527937
1.578000    2115.825235
1.579000    2121.263167
1.580000    2129.871664
1.581000    2135.942381
1.582000    2144.553546
1.583000    2149.040171
1.584000    2157.022246
1.585000    2162.122888
1.586000    2166.600138
1.587000    2174.576183
1.588000    2180.325662
1.589000    2187.031498
1.590000    2190.551065
1.591000    2198.221608
1.592000    2203.964395
1.593000    2207.487970
1.594000    2213.876247
1.595000    2215.792971
1.596000    2220.276582
1.597000    2226.979735
1.598000    2230.505994
1.599000    2234.664358
1.600000    2239.454133
1.601000    2243.928037
1.602000    2246.486905
1.603000    2249.695936
1.604000    2253.854300
1.605000    2256.421187
1.606000    2259.297630
1.607000    2262.817528
1.608000    2266.021887
1.609000    2266.040638
1.610000    2269.865705
1.611000    2273.071058
1.612000    2276.268393
1.613000    2275.651361
1.614000    2279.492497
1.615000    2283.015078
1.616000    2283.348375
1.617000    2284.313114
1.618000    2286.554406
1.619000    2288.808105
1.620000    2289.767809
1.621000    2290.748616
1.622000    2289.799977
1.623000    2291.413552
1.624000    2293.350022
1.625000    2294.947861
1.626000    2294.336196
1.627000    2292.751111
1.628000    2294.051135
1.629000    2294.383437
1.630000    2295.997012
1.631000    2295.064441
1.632000    2295.714966
1.633000    2294.459832
1.634000    2293.532959
1.635000    2294.171756
1.636000    2292.929675
1.637000    2291.360658
1.638000    2293.600972
1.639000    2288.527462
1.640000    2286.633530
1.641000    2285.372365
1.642000    2283.164551
1.643000    2282.542184
1.644000    2276.823847
1.645000    2275.250490
1.646000    2271.448546
1.647000    2273.695884
1.648000    2268.936256
1.649000    2266.403195
1.650000    2264.849914
1.651000    2260.714342
1.652000    2256.908721
1.653000    2254.703921
1.654000    2253.128211
1.655000    2248.040985
1.656000    2247.750558
1.657000    2242.359488
1.658000    2239.188986
1.659000    2237.620301
1.660000    2232.218530
1.661000    2230.956702
1.662000    2228.440372
1.663000    2223.674384
1.664000    2220.180955
1.665000    2214.467985
1.666000    2210.017205
1.667000    2208.440832
1.668000    2205.590211
1.669000    2201.149801
1.670000    2195.745678
1.671000    2191.297581
1.672000    2189.091455
1.673000    2184.968605
1.674000    2178.295931
1.675000    2175.441631
1.676000    2172.907907
1.677000    2169.424186
1.678000    2163.705849
1.679000    2160.847541
1.680000    2157.036221
1.681000    2151.644488
1.682000    2149.741512
1.683000    2144.343087
1.684000    2142.125233
1.685000    2137.674122
1.686000    2134.184371
1.687000    2134.197788
1.688000    2132.613697
1.689000    2130.392497
1.690000    2126.909439
1.691000    2121.167679
1.692000    2118.316063
1.693000    2114.501729
1.694000    2112.602098
1.695000    2107.500461
1.696000    2103.688810
1.697000    2098.593866
1.698000    2093.176358
1.699000    2090.640281
1.700000    2085.538645
1.701000    2082.029811
1.702000    2075.347430
1.703000    2069.603317
1.704000    2063.871264
1.705000    2061.006232
1.706000    2055.907278
1.707000    2051.766340
1.708000    2046.034949
1.709000    2039.016257
1.710000    2031.687722
1.711000    2026.907323
1.712000    2017.661733
1.713000    2011.920967
1.714000    2003.630377
1.715000    1995.676761
1.716000    1988.335836
1.717000    1978.129879
1.718000    1969.205858
1.719000    1960.911259
1.720000    1951.355133
1.721000    1940.827938
1.722000    1929.665623
1.723000    1921.377054
1.724000    1907.027806
1.725000    1895.228714
1.726000    1883.423265
1.727000    1870.346246
1.728000    1858.230257
1.729000    1842.923326
1.730000    1828.885609
1.731000    1811.668315
1.732000    1793.801521
1.733000    1777.217326
1.734000    1761.898005
1.735000    1740.215851
1.736000    1719.795224
1.737000    1698.424601
1.738000    1677.677701
1.739000    1656.294356
1.740000    1633.325910
1.741000    1610.028854
1.742000    1583.223959
1.743000    1556.090472
1.744000    1530.550120
1.745000    1505.949032
1.746000    1478.800171
1.747000    1447.801161
1.748000    1411.693491
1.749000    1376.833632
1.750000    1337.184360
1.751000    1295.928569
1.752000    1253.388822
1.753000    1209.571842
1.754000    1160.965750
1.755000    1115.554941
1.756000    1068.874255
1.757000    1018.385595
1.758000    970.418601
1.759000    917.362692
1.760000    867.481325
1.761000    812.490974
1.762000    755.256655
1.763000    694.505452
1.764000    635.020812
1.765000    573.634190
1.766000    517.017249
1.767000    457.539964
1.768000    403.173692
1.769000    351.061095
1.770000    306.926520
1.771000    260.253189
1.772000    218.087524
1.773000    185.136340
1.774000    154.455222
1.775000    129.204334
1.776000    100.120360
1.777000    74.563641
1.778000    52.198888
1.779000    34.321756
1.780000    21.855802
1.781000    15.426708
1.782000    8.081111
1.783000    4.261773
1.784000    -4.041208
1.785000    -8.501032
1.786000    -7.216745
1.787000    -5.633348
1.788000    -3.056092
1.789000    1.422484
1.790000    6.844333
1.791000    2.716116
1.792000    5.270281
1.793000    4.614752
1.794000    1.431829
1.795000    -1.444900
1.796000    -2.412953
1.797000    -3.052414
1.798000    -0.182710
1.799000    -0.498249
1.800000    1.430171
1.801000    2.391864
1.802000    5.582474
1.803000    3.988677
1.804000    3.978638
1.805000    1.746705
1.806000    -0.805108
1.807000    -0.494903
1.808000    -0.812794
1.809000    -0.177343
1.810000    -1.763454
1.811000    1.735341
1.812000    2.067280
1.813000    3.341861
1.814000    2.386166
1.815000    3.348222
1.816000    0.795383
1.817000    3.338183
1.818000    1.426825
1.819000    -1.773161
1.820000    -1.134364
1.821000    -1.130686
1.822000    1.741370
1.823000    1.418112
1.824000    3.659421
1.825000    3.344875
1.826000    2.384177
1.827000    3.024301
1.828000    0.777326
1.829000    -1.447914
1.830000    -3.048736
1.831000    1.095549
1.832000    0.784350
1.833000    0.794388
1.834000    2.381494
1.835000    1.427157
1.836000    1.427488
1.837000    3.023638
1.838000    3.338183
1.839000    0.149230
1.840000    -1.448577
1.841000    -1.130023
1.842000    -1.448909
1.843000    1.105587
1.844000    1.420464
1.845000    3.335500
1.846000    1.099558
1.847000    2.700048
1.848000    -0.165978
1.849000    1.105587
1.850000    0.466127
1.851000    2.699385
1.852000    1.413440
1.853000    1.105587
1.854000    1.101247
1.855000    1.741702
1.856000    0.784681
1.857000    2.063271
1.858000    3.665450
1.859000    3.023969
1.860000    2.384509
1.861000    2.378479
1.862000    2.380499
1.863000    1.420796
1.864000    -0.809117
1.865000    0.460097
1.866000    1.095880
1.867000    1.427157
1.868000    0.466127
1.869000    2.377485
1.870000    1.105919
1.871000    1.417118
1.872000    0.777989
1.873000    2.373807
1.874000    -0.179363
1.875000    -0.173334
1.876000    0.465795
1.877000    1.095880
1.878000    -1.451261
1.879000    1.747400
1.880000    2.374470
1.881000    1.427157
1.882000    1.751077
1.883000    2.381162
1.884000    2.376822
1.885000    1.420464
1.886000    3.331159
1.887000    -0.173002
1.888000    -0.169656
1.889000    3.332153
1.890000    1.734678
1.891000    0.462781
1.892000    2.387523
1.893000    0.785013
1.894000    2.692361
1.895000    1.420464
1.896000    -0.494571
1.897000    2.384177
1.898000    1.095217
1.899000    1.098895
1.900000    -0.169325
1.901000    -0.169325
1.902000    1.744717
1.903000    -0.490562
1.904000    0.462781
1.905000    1.099558
1.906000    -0.176017
1.907000    0.466458
1.908000    -0.494571
1.909000    -0.176017
1.910000    0.141543
1.911000    -1.130354
1.912000    1.731332
1.913000    0.141543
1.914000    0.142206
1.915000    1.744385
1.916000    0.144889
1.917000    1.102241
1.918000    -0.175686
1.919000    -0.808785
1.920000    2.060256
1.921000    0.784018
1.922000    -0.805439
1.923000    2.381162
1.924000    1.105919
1.925000    0.794720
1.926000    1.102904
1.927000    1.417781
1.928000    0.463444
1.929000    2.693024
1.930000    1.748726
1.931000    -1.129691
1.932000    2.378148
1.933000    1.423810
1.934000    1.098895
1.935000    0.781666
1.936000    2.704420
1.937000    0.145221
1.938000    1.105256
1.939000    0.148235
1.940000    -0.490894
1.941000    1.417449
1.942000    2.059262
1.943000    1.420796
1.944000    2.381162
1.945000    -0.493577
1.946000    -0.166310
1.947000    -1.127008
1.948000    1.108934
1.949000    0.148235
1.950000    -1.452255
1.951000    0.460429
1.952000    1.420133
1.953000    -0.176349
1.954000    1.420796
1.955000    0.784681
1.956000    2.385172
1.957000    2.696039
1.958000    1.423479
1.959000    2.059925
1.960000    -0.169656
1.961000    -0.494571
1.962000    -0.179363
1.963000    1.417118
1.964000    3.013931
1.965000    1.103236
1.966000    4.610743
1.967000    1.741370
1.968000    1.106582
1.969000    0.787364
1.970000    -0.179363
1.971000    -0.800072
1.972000    1.105919
1.973000    3.013268
1.974000    2.705415
1.975000    3.338846
1.976000    1.102904
1.977000    1.427819
1.978000    0.781666
1.979000    -0.169656
1.980000    2.062939
1.981000    1.744717
1.982000    1.417118
1.983000    1.099558
1.984000    1.106250
1.985000    1.421127
1.986000    2.384840
1.987000    2.699385
1.988000    0.463775
1.989000    -0.497255
1.990000    1.099226
1.991000    1.742033
1.992000    1.096543
1.993000    1.417449
1.994000    -0.169656
1.995000    1.098563
1.996000    0.141874
1.997000    0.791374
1.998000    1.427157
1.999000    0.790711
2.000000    0.148567
2.001000    0.466127
2.002000    0.465795
2.003000    3.020291
2.004000    1.420796
2.005000    2.699054
2.006000    2.380168
2.007000    1.748063
2.008000    1.748726
2.009000    1.099558
2.010000    0.789022
2.011000    1.423810
2.012000    1.095880
2.013000    2.380499
2.014000    1.108934
2.015000    1.426494
2.016000    2.066949
2.017000    1.102904
2.018000    1.102573
2.019000    1.108271
2.020000    1.092534
2.021000    0.144889
2.022000    0.787364
2.023000    1.423147
2.024000    -0.169988
2.025000    2.056578
2.026000    1.102904
2.027000    0.469805
2.028000    2.385172
2.029000    1.423810
2.030000    0.460429
2.031000    2.062939
2.032000    0.151582
2.033000    -0.172339
2.034000    1.427157
2.035000    1.102573
2.036000    -0.491225
2.037000    1.738356
2.038000    1.741702
2.039000    1.422816
2.040000    0.145221
2.041000    -0.177011
2.042000    -0.812131
2.043000    1.426494
2.044000    -0.180026
2.045000    -1.444568
2.046000    0.148567
2.047000    -0.481187
2.048000    1.102904
2.049000    1.738356
2.050000    2.703063
2.051000    -0.168993
2.052000    -0.169325
2.053000    0.794057
2.054000    -0.491225
2.055000    0.147904
2.056000    -0.169656
2.057000    -0.165978
2.058000    1.745379
2.059000    0.465464
2.060000    0.457414
2.061000    0.154928
2.062000    1.740707
2.063000    -0.176680
2.064000    0.463112
2.065000    1.102573
2.066000    1.427157
2.067000    -0.487879
2.068000    -0.494571
2.069000    0.473482
2.070000    -0.173334
2.071000    0.783687
2.072000    1.105587
2.073000    -0.173334
2.074000    0.787696
2.075000    -0.179363
2.076000    0.141543
2.077000    -0.487879
2.078000    -1.451261
2.079000    0.787364
2.080000    -1.766469
2.081000    -1.126345
2.082000    1.731663
2.083000    0.154596
2.084000    1.416455
2.085000    -0.814815
2.086000    -1.447914
2.087000    1.417118
2.088000    -0.490894
2.089000    0.154596
2.090000    -1.444237
2.091000    -0.812463
2.092000    0.469473
2.093000    0.151582
2.094000    -0.168993
2.095000    -0.169325
2.096000    -1.127671
2.097000    -1.123330
2.098000    1.423810
2.099000    0.145552
2.100000    1.423810
2.101000    -1.130023
2.102000    0.778652
2.103000    0.790711
2.104000    1.735009
2.105000    0.470136
2.106000    -0.172671
2.107000    -1.133038
2.108000    0.145552
2.109000    0.790711
2.110000    0.781004
2.111000    1.105919
2.112000    2.053232
2.113000    -1.130023
2.114000    -0.173002
2.115000    0.781998
2.116000    -0.176680
2.117000    0.463112
2.118000    0.142537
2.119000    1.102573
2.120000    -1.766469
2.121000    0.467121
2.122000    -0.805770
2.123000    -1.130354
2.124000    1.423479
2.125000    0.774974
2.126000    -1.127008
2.127000    -1.127008
2.128000    0.781666
2.129000    -0.496923
2.130000    -0.491888
2.131000    -0.494571
2.132000    1.413772
2.133000    1.105256
2.134000    0.144889
2.135000    -0.172671
2.136000    0.138528
2.137000    -0.487216
2.138000    -1.126014
2.139000    -0.493909
2.140000    -1.130354
2.141000    -0.172671
2.142000    1.427488
2.143000    1.738687
2.144000    -0.173002
2.145000    -0.815809
2.146000    1.102904
2.147000    -1.120979
2.148000    -0.809117
2.149000    -0.487216
2.150000    1.105919
2.151000    1.096212
2.152000    0.466790
2.153000    0.457083
2.154000    -0.183372
2.155000    0.787696
2.156000    -0.172339
2.157000    2.380831
2.158000    1.420133
2.159000    -0.179032
2.160000    -0.812131
2.161000    0.141543
2.162000    -0.812131
2.163000    0.154928
2.164000    -0.176017
2.165000    1.420464
2.166000    0.786702
2.167000    0.784681
2.168000    0.463444
2.169000    -0.496923
2.170000    -0.166310
2.171000    0.144889
2.172000    1.747731
2.173000    0.460097
2.174000    0.459766
2.175000    0.460097
2.176000    0.466127
2.177000    -0.484864
2.178000    -1.769152
2.179000    1.427488
2.180000    -0.163295
2.181000    1.099558
2.182000    0.148235
2.183000    -0.172339
2.184000    0.463444
2.185000    -1.126677
2.186000    1.105587
2.187000    -1.450929
2.188000    1.109265
2.189000    1.423479
2.190000    -0.494571
2.191000    1.095880
2.192000    -0.494571
2.193000    -0.491225
2.194000    -0.162632
2.195000    0.155259
2.196000    1.093197
2.197000    -1.133701
2.198000    -0.169325
2.199000    0.142206
2.200000    1.742033
2.201000    -0.169988
2.202000    1.101578
2.203000    0.145221
2.204000    -0.799078
2.205000    0.778320
2.206000    0.784681
2.207000    0.145884
2.208000    0.457083
2.209000    0.469142
2.210000    -0.166973
2.211000    -1.442216
2.212000    -0.173334
2.213000    0.460097
2.214000    1.105919
2.215000    -1.126014
2.216000    -0.811468
2.217000    0.145552
2.218000    0.148235
2.219000    1.426494
2.220000    1.416786
2.221000    -1.766137
2.222000    2.066617
2.223000    0.469473
2.224000    0.152245
2.225000    0.469473
2.226000    0.781335
2.227000    -1.129691
2.228000    -1.119653
2.229000    0.463775
2.230000    -1.441553
2.231000    1.420133
2.232000    -0.815478
2.233000    0.790711
2.234000    0.466458
2.235000    0.784681
2.236000    0.463775
2.237000    1.099226
2.238000    1.101910
2.239000    -0.496592
2.240000    0.460097
2.241000    0.781004
2.242000    0.469473
2.243000    0.463444
2.244000    -0.497586
2.245000    -0.808454
2.246000    -1.126677
2.247000    0.147572
2.248000    1.105919
2.249000    0.472488
2.250000    -1.130354
2.251000    0.785013
2.252000    1.101910
2.253000    0.463444
2.254000    0.155591
2.255000    2.685669
2.256000    0.790379
2.257000    1.108602
2.258000    0.151913
2.259000    0.787696
2.260000    0.787033
2.261000    0.781004
2.262000    0.154596
2.263000    -1.454938
2.264000    -0.176017
2.265000    0.785013
2.266000    -0.172671
2.267000    0.784350
2.268000    0.463112
2.269000    1.109265
2.270000    -0.165978
2.271000    0.147904
2.272000    1.420796
2.273000    1.105919
2.274000    0.479512
2.275000    -0.490562
2.276000    1.112280
2.277000    2.059925
2.278000    1.738687
2.279000    2.380831
2.280000    3.020291
2.281000    1.101578
2.282000    1.738024
2.283000    -0.173002
2.284000    0.790379
2.285000    -0.180358
2.286000    0.148898
2.287000    0.148235
2.288000    0.473482
2.289000    2.053232
2.290000    0.465795
2.291000    1.098895
2.292000    0.145884
2.293000    1.105256
2.294000    0.463112
2.295000    -0.489899
2.296000    1.742033
2.297000    0.139191
2.298000    2.699717
2.299000    -0.490894
2.300000    1.096212
2.301000    0.787696
2.302000    2.059925
2.303000    1.420796
2.304000    1.426825
2.305000    1.426825
2.306000    3.652728
2.307000    0.134850
2.308000    1.430503
2.309000    2.699385
2.310000    2.372118
2.311000    1.748394
2.312000    -0.805439
2.313000    1.744717
2.314000    2.699054
2.315000    1.742033
2.316000    2.381494
2.317000    2.062939
2.318000    0.781666
2.319000    2.387855
2.320000    2.063271
2.321000    1.414103
2.322000    0.794388
2.323000    0.791042
2.324000    17.391937
2.325000    109.163138
2.326000    204.846824
2.327000    302.241047
2.328000    406.706971
2.329000    559.552130
2.330000    662.135862
2.331000    659.057913
2.332000    647.947274
2.333000    778.111888
2.334000    1036.668850
2.335000    1364.222166
2.336000    2031.913903
2.337000    2266.594673
2.338000    2020.057383
2.339000    1694.064066
2.340000    1734.561799
2.341000    1938.910307
2.342000    2006.923312
2.343000    1894.084334
2.344000    1705.038709
2.345000    1686.847949
2.346000    1803.890198
2.347000    1769.211886
2.348000    1630.314293
2.349000    1496.014765
2.350000    1462.572774
2.351000    1498.758245
2.352000    1516.290147
2.353000    1486.017963
2.354000    1462.939976
2.355000    1481.494166
2.356000    1524.252839
2.357000    1580.396351
2.358000    1623.280254
2.359000    1657.131968
2.360000    1678.919607
2.361000    1711.880293
2.362000    1740.632690
2.363000    1769.424658
2.364000    1793.091818
2.365000    1821.200083
2.366000    1847.721909
2.367000    1882.514544
2.368000    1914.764110
2.369000    1945.076180
2.370000    1973.791075
2.371000    2001.556335
2.372000    2025.795669
2.373000    2056.089319
2.374000    2083.210408
2.375000    2105.856606
2.376000    2132.327541
2.377000    2161.026036
2.378000    2187.494618
2.379000    2216.847316
2.380000    2248.105342
2.381000    2281.589603
2.382000    2312.536099
2.383000    2345.383914
2.384000    2377.275039
2.385000    2411.719004
2.386000    2448.708752
2.387000    2482.491158
2.388000    2515.641791
2.389000    2544.654831
2.390000    2568.236284
2.391000    2592.766044
2.392000    2616.986958
2.393000    2638.644331
2.394000    2655.532006
2.395000    2674.661006
2.396000    2693.138138
2.397000    2715.441001
2.398000    2730.111818
2.399000    2742.842818
2.400000    2746.344959
2.401000    2752.703088
2.402000    2767.036930
2.403000    2778.505741
2.404000    2788.365648
2.405000    2798.549839
2.406000    2803.311818
2.407000    2810.306724
2.408000    2814.111352
2.409000    2816.974032
2.410000    2818.223137
2.411000    2820.115744
2.412000    2818.509192
2.413000    2817.858004
2.414000    2813.379097
2.415000    2807.303014
2.416000    2798.039335
2.417000    2789.104581
2.418000    2776.668017
2.419000    2762.952532
2.420000    2745.080372
2.421000    2729.772083
2.422000    2714.148587
2.423000    2694.679283
2.424000    2676.507982
2.425000    2654.822151
2.426000    2636.014736
2.427000    2616.236585
2.428000    2596.154574
2.429000    2577.989303
2.430000    2556.618680
2.431000    2536.854245
2.432000    2517.711213
2.433000    2498.272025
2.434000    2478.186020
2.435000    2458.408200
2.436000    2437.056328
2.437000    2415.682027
2.438000    2392.087521
2.439000    2371.038135
2.440000    2348.068016
2.441000    2327.024659
2.442000    2305.328457
2.443000    2281.734946
2.444000    2261.312298
2.445000    2237.724153
2.446000    2216.663040
2.447000    2194.973530
2.448000    2174.871789
2.449000    2153.819057
2.450000    2134.354094
2.451000    2114.575279
2.452000    2095.430890
2.453000    2076.280140
2.454000    2060.015842
2.455000    2041.511576
2.456000    2024.271521
2.457000    2006.412415
2.458000    1992.368005
2.459000    1978.013060
2.460000    1962.061633
2.461000    1949.941303
2.462000    1934.628674
2.463000    1919.955838
2.464000    1905.269947
2.465000    1893.786395
2.466000    1880.384792
2.467000    1866.338031
2.468000    1852.308001
2.469000    1840.823786
2.470000    1827.740737
2.471000    1816.571399
2.472000    1804.764257
2.473000    1794.237725
2.474000    1783.393634
2.475000    1773.495861
2.476000    1763.284869
2.477000    1753.393457
2.478000    1743.507056
2.479000    1735.216135
2.480000    1727.234061
2.481000    1722.777914
2.482000    1714.166749
2.483000    1708.412598
2.484000    1701.082706
2.485000    1693.427236
2.486000    1686.412221
2.487000    1679.711420
2.488000    1673.008267
2.489000    1667.273862
2.490000    1663.119538
2.491000    1656.747330
2.492000    1649.714890
2.493000    1641.115784
2.494000    1638.237698
2.495000    1631.212645
2.496000    1624.518867
2.497000    1618.446825
2.498000    1610.479824
2.499000    1602.494735
2.500000    1595.800295
2.501000    1591.956145
2.502000    1582.717910
2.503000    1575.053064
2.504000    1568.667802
2.505000    1564.837400
2.506000    1557.820364
2.507000    1552.709020
2.508000    1545.368427
2.509000    1540.572954
2.510000    1533.561617
2.511000    1527.805114
2.512000    1518.879072
2.513000    1511.211212
2.514000    1506.742675
2.515000    1499.400392
2.516000    1493.331696
2.517000    1485.044453
2.518000    1478.661874
2.519000    1474.502184
2.520000    1468.445516
2.521000    1460.462115
2.522000    1451.204135
2.523000    1446.415354
2.524000    1440.668890
2.525000    1432.366569
2.526000    1425.349565
2.527000    1418.006951
2.528000    1409.716030
2.529000    1404.277418
2.530000    1397.568236
2.531000    1390.555241
2.532000    1384.169648
2.533000    1377.148272
2.534000    1369.483095
2.535000    1364.052170
2.536000    1355.440674
2.537000    1345.547242
2.538000    1341.068666
2.539000    1332.451140
2.540000    1324.478110
2.541000    1315.862605
2.542000    1309.463958
2.543000    1304.041747
2.544000    1296.692440
2.545000    1287.113222
2.546000    1280.095192
2.547000    1271.482039
2.548000    1264.776206
2.549000    1255.508187
2.550000    1246.254215
2.551000    1239.229162
2.552000    1229.336061
2.553000    1222.942781
2.554000    1216.861694
2.555000    1206.974955
2.556000    1198.353751
2.557000    1191.010806
2.558000    1183.342614
2.559000    1174.724094
2.560000    1166.102228
2.561000    1157.474664
2.562000    1149.181059
2.563000    1138.958371
2.564000    1131.304558
2.565000    1121.394727
2.566000    1112.772860
2.567000    1104.462856
2.568000    1095.522767
2.569000    1086.572639
2.570000    1076.989743
2.571000    1070.275225
2.572000    1062.908525
2.573000    1053.957734
2.574000    1041.495095
2.575000    1031.583274
2.576000    1022.930297
2.577000    1014.287359
2.578000    1004.699459
2.579000    995.728260
2.580000    985.813423
2.581000    976.537386
2.582000    967.264363
2.583000    962.451164
2.584000    953.822274
2.585000    945.818133
2.586000    939.090231
2.587000    931.093777
2.588000    922.775092
2.589000    913.814593
2.590000    906.774166
2.591000    897.813005
2.592000    887.898169
2.593000    881.186335
2.594000    873.818340
2.595000    865.823907
2.596000    856.861057
2.597000    849.824970
2.598000    843.414959
2.599000    834.149292
2.600000    828.696633
2.601000    819.427950
2.602000    812.701405
2.603000    805.983210
2.604000    795.433254
2.605000    785.827266
2.606000    778.463944
2.607000    770.460466
2.608000    764.053470
2.609000    756.377922
2.610000    748.056885
2.611000    741.652572
2.612000    734.609129
2.613000    725.980902
2.614000    717.981102
2.615000    713.808059
2.616000    704.522977
2.617000    697.157634
2.618000    688.835602
2.619000    682.113729
2.620000    674.418104
2.621000    666.113135
2.622000    660.663490
2.623000    656.177228
2.624000    649.140809
2.625000    643.373273
2.626000    638.241189
2.627000    630.243410
2.628000    623.196953
2.629000    620.294449
2.630000    616.124420
2.631000    615.424758
2.632000    613.148030
2.633000    596.830902
2.634000    572.236569
2.635000    558.815884
2.636000    560.724890
2.637000    569.978830
2.638000    574.480135
2.639000    574.493157
2.640000    569.075949
2.641000    563.333495
2.642000    557.896572
2.643000    550.524537
2.644000    540.927261
2.645000    531.336015
2.646000    527.796403
2.647000    520.756639
2.648000    524.882203
2.649000    525.814475
2.650000    519.409830
2.651000    509.815569
2.652000    499.588209
2.653000    493.511132
2.654000    491.590067
2.655000    492.859281
2.656000    493.184527
2.657000    490.948917
2.658000    486.163814
2.659000    480.737594
2.660000    478.489261
2.661000    473.373577
2.662000    470.165572
2.663000    466.948523
2.664000    465.331302
2.665000    459.582849
2.666000    454.145911
2.667000    450.620678
2.668000    449.961140
2.669000    444.207320
2.670000    441.649809
2.671000    438.457179
2.672000    438.764700
2.673000    436.854668
2.674000    434.294142
2.675000    430.464734
2.676000    428.533630
2.677000    426.294342
2.678000    422.451218
2.679000    420.204243
2.680000    415.400420
2.681000    413.799599
2.682000    410.911143
2.683000    408.664831
2.684000    405.786082
2.685000    404.175885
2.686000    401.304160
2.687000    399.061526
2.688000    398.104174
2.689000    393.621920
2.690000    392.343662
2.691000    390.097350
2.692000    387.225957
2.693000    385.618111
2.694000    383.372794
2.695000    381.129165
2.696000    378.568308
2.697000    378.872483
2.698000    374.069323
2.699000    371.518505
2.700000    370.553466
2.701000    368.311826
2.702000    368.937902
2.703000    366.708984
2.704000    365.744608
2.705000    365.741593
2.706000    362.866523
2.707000    361.905824
2.708000    362.223384
2.709000    361.260003
2.710000    362.204633
2.711000    360.280222
2.712000    357.723374
2.713000    357.413863
2.714000    357.722379
2.715000    357.083913
2.716000    357.713003
2.717000    358.031226
2.718000    358.660980
2.719000    359.300772
2.720000    357.392760
2.721000    357.700945
2.722000    357.708631
2.723000    360.573664
2.724000    358.659622
2.725000    358.666646
2.726000    361.197387
2.727000    358.974168
2.728000    360.249743
2.729000    361.518957
2.730000    363.116101
2.731000    362.160075
2.732000    363.747180
2.733000    364.399031
2.734000    365.346676
2.735000    366.314067
2.736000    364.705858
2.737000    367.902167
2.738000    368.538612
2.739000    368.548983
2.740000    370.771871
2.741000    371.093440
2.742000    372.058810
2.743000    373.973183
2.744000    373.649262
2.745000    376.842224
2.746000    376.839541
2.747000    378.754577
2.748000    380.352384
2.749000    382.590346
2.750000    383.225103
2.751000    384.510716
2.752000    384.835963
2.753000    385.153855
2.754000    388.663020
2.755000    393.449780
2.756000    394.731716
2.757000    394.093250
2.758000    396.648740
2.759000    398.881667
2.760000    401.764756
2.761000    403.682807
2.762000    404.633798
2.763000    409.110022
2.764000    411.025057
2.765000    416.130372
2.766000    415.491574
2.767000    417.735203
2.768000    418.374995
2.769000    424.114735
2.770000    425.724933
2.771000    427.954845
2.772000    430.189098
2.773000    434.984902
2.774000    435.943912
2.775000    438.492047
2.776000    442.332488
2.777000    444.573434
2.778000    448.082599
2.779000    450.000980
2.780000    454.461136
2.781000    457.030012
2.782000    460.224300
2.783000    465.012718
2.784000    467.248991
2.785000    471.086086
2.786000    475.875166
2.787000    479.069123
2.788000    485.141828
2.789000    488.343803
2.790000    492.817676
2.791000    498.566129
2.792000    503.036986
2.793000    504.960040
2.794000    511.987083
2.795000    517.420659
2.796000    524.764899
2.797000    532.119871
2.798000    540.753418
2.799000    548.426945
2.800000    555.128046
2.801000    562.798227
2.802000    566.001197
2.803000    574.608652
2.804000    580.367807
2.805000    586.441175
2.806000    594.095288
2.807000    599.529527
2.808000    609.734458
2.809000    619.947108
2.810000    691.525825
2.811000    713.512423
2.812000    616.495050
2.813000    555.800023
2.814000    604.585123
2.815000    673.573119
2.816000    651.290148
2.817000    658.769563
2.818000    700.976914
2.819000    753.322034
2.820000    750.865541
2.821000    752.130052
2.822000    761.341848
2.823000    770.853542
2.824000    759.582191
2.825000    748.332602
2.826000    749.216400
2.827000    757.129530
2.828000    761.918310
2.829000    771.827748
2.830000    791.660370
2.831000    811.838317
2.832000    833.272424
2.833000    851.197035
2.834000    866.550782
2.835000    875.791337
2.836000    878.959219
2.837000    880.174925
2.838000    876.588165
2.839000    871.422318
2.840000    868.490725
2.841000    871.643201
2.842000    874.822115
2.843000    886.651292
2.844000    897.220267
2.845000    910.359475
2.846000    926.029062
2.847000    937.885008
2.848000    944.917386
2.849000    951.612157
2.850000    950.315511
2.851000    947.086103
2.852000    943.531117
2.853000    938.389025
2.854000    936.421144
2.855000    932.564635
2.856000    933.532026
2.857000    939.288828
2.858000    944.111703
2.859000    951.483707
2.860000    957.584839
2.861000    964.634279
2.862000    966.238447
2.863000    966.242125
2.864000    965.272414
2.865000    958.860082
2.866000    953.073827
2.867000    946.349302
2.868000    942.816050
2.869000    937.385489
2.870000    937.074290
2.871000    936.138673
2.872000    937.115408
2.873000    939.691970
2.874000    943.550137
2.875000    943.885422
2.876000    942.299643
2.877000    938.148665
2.878000    934.940329
2.879000    928.865967
2.880000    920.549301
2.881000    914.461885
2.882000    906.470798
2.883000    903.269817
2.884000    900.421185
2.885000    900.098258
2.886000    900.109954
2.887000    901.095071
2.888000    899.207468
2.889000    895.067855
2.890000    895.693931
2.891000    891.225062
2.892000    886.443668
2.893000    880.356584
2.894000    875.246929
2.895000    866.930595
2.896000    864.050852
2.897000    857.972448
2.898000    856.706581
2.899000    854.484687
2.900000    853.540388
2.901000    854.194228
2.902000    850.373833
2.903000    846.876032
2.904000    847.514498
2.905000    841.442788
2.906000    836.657716
2.907000    831.213438
2.908000    826.737214
2.909000    821.621861
2.910000    819.377901
2.911000    816.833443
2.912000    813.639487
2.913000    811.094003
2.914000    809.186655
2.915000    809.518262
2.916000    809.846193
2.917000    805.695878
2.918000    802.834524
2.919000    801.556960
2.920000    795.471533
2.921000    790.044980
2.922000    787.164243
2.923000    782.370459
2.924000    779.812948
2.925000    777.896586
2.926000    776.943907
2.927000    772.799290
2.928000    769.934921
2.929000    769.941945
2.930000    767.393810
2.931000    767.072572
2.932000    763.243499
2.933000    761.966598
2.934000    757.166453
2.935000    753.021174
2.936000    750.144114
2.937000    748.217020
2.938000    745.022400
2.939000    744.379593
2.940000    741.500182
2.941000    739.281634
2.942000    737.996352
2.943000    735.144042
2.944000    734.507264
2.945000    733.216284
2.946000    730.045420
2.947000    726.205641
2.948000    726.194608
2.949000    723.639781
2.950000    721.717721
2.951000    717.245175
2.952000    715.645016
2.953000    713.729649
2.954000    712.447381
2.955000    711.171475
2.956000    709.578671
2.957000    706.709630
2.958000    707.024507
2.959000    705.106456
2.960000    703.830550
2.961000    703.508318
2.962000    699.029410
2.963000    699.025070
2.964000    696.785782
2.965000    694.548846
2.966000    694.226945
2.967000    691.020598
2.968000    690.390513
2.969000    690.065929
2.970000    688.151225
2.971000    688.148210
2.972000    687.196556
2.973000    686.235858
2.974000    684.318139
2.975000    685.910943
2.976000    683.986863
2.977000    682.064803
2.978000    681.742240
2.979000    682.060463
2.980000    682.377691
2.981000    681.420339
2.982000    681.083033
2.983000    682.053439
2.984000    682.375008
2.985000    683.637529
2.986000    683.952075
2.987000    685.236027
2.988000    684.269631
2.989000    685.223968
2.990000    684.269631
2.991000    684.577484
2.992000    688.403214
2.993000    688.395859
2.994000    686.488841
2.995000    687.117600
2.996000    691.257876
2.997000    692.858035
2.998000    691.903035
2.999000    692.215891
3.000000    694.126917
3.001000    696.041953
3.002000    696.038607
3.003000    696.992281
3.004000    696.031583
3.005000    700.814334
3.006000    699.532729
3.007000    701.126196
3.008000    702.080533
3.009000    702.394747
3.010000    703.990565
3.011000    704.312797
3.012000    710.046208
3.013000    708.454067
3.014000    711.006906
3.015000    715.144498
3.016000    715.462721
3.017000    716.740980
3.018000    718.966220
3.019000    718.960853
3.020000    722.471044
3.021000    724.704965
3.022000    725.331704
3.023000    725.659634
3.024000    727.243062
3.025000    730.436356
3.026000    731.390361
3.027000    734.583987
3.028000    737.443321
3.029000    739.676248
3.030000    738.400010
3.031000    741.596982
3.032000    743.835938
3.033000    745.743950
3.034000    747.314655
3.035000    747.640565
3.036000    749.871835
3.037000    751.153439
3.038000    754.013105
3.039000    756.894868
3.040000    758.157058
3.041000    760.389654
3.042000    762.949848
3.043000    761.354030
3.044000    766.127074
3.045000    765.174062
3.046000    767.088103
3.047000    770.271690
3.048000    770.596937
3.049000    774.094406
3.050000    774.734529
3.051000    774.731183
3.052000    777.599230
3.053000    779.509925
3.054000    781.098356
3.055000    783.657224
3.056000    784.285289
3.057000    784.936809
3.058000    788.120727
3.059000    789.389278
3.060000    790.668199
3.061000    791.304313
3.062000    792.582571
3.063000    795.133058
3.064000    797.677516
3.065000    794.170008
3.066000    798.317308
3.067000    797.359293
3.068000    800.861103
3.069000    802.143701
3.070000    802.451554
3.071000    804.038660
3.072000    804.047704
3.073000    805.956378
3.074000    806.906375
3.075000    805.952038
3.076000    807.546167
3.077000    807.546499
3.078000    809.463223
3.079000    811.053343
3.080000    810.414877
3.081000    812.643132
3.082000    810.726076
3.083000    811.362190
3.084000    812.321563
3.085000    814.555153
3.086000    813.909663
3.087000    816.150971
3.088000    815.511842
3.089000    815.819695
3.090000    815.497794
3.091000    815.189941
3.092000    817.084899
3.093000    817.090929
3.094000    816.137255
3.095000    816.452131
3.096000    815.177219
3.097000    817.087914
3.098000    816.759321
3.099000    817.084236
3.100000    816.445770
3.101000    816.763330
3.102000    818.995926
3.103000    817.716673
3.104000    816.755975
3.105000    818.352787
3.106000    817.703620
3.107000    817.067174
3.108000    816.434074
3.109000    815.797960
3.110000    816.749614
3.111000    815.790604
3.112000    815.797628
3.113000    817.381388
3.114000    813.882924
3.115000    814.515692
3.116000    816.105481
3.117000    812.600325
3.118000    813.237103
3.119000    813.564701
3.120000    813.236771
3.121000    812.272727
3.122000    811.324419
3.123000    809.410378
3.124000    809.088477
3.125000    811.318721
3.126000    809.092155
3.127000    810.363721
3.128000    808.140832
3.129000    809.094838
3.130000    808.452031
3.131000    806.219104
3.132000    806.215758
3.133000    804.618946
3.134000    804.940183
3.135000    803.677662
3.136000    802.714280
3.137000    800.792884
3.138000    800.795567
3.139000    798.251109
3.140000    798.241402
3.141000    796.010495
3.142000    796.330044
3.143000    793.460009
3.144000    794.102484
3.145000    789.001178
3.146000    789.629937
3.147000    789.000515
3.148000    784.852884
3.149000    786.450360
3.150000    786.130480
3.151000    782.301072
3.152000    782.615948
3.153000    781.035535
3.154000    781.982517
3.155000    777.834223
3.156000    775.281384
3.157000    774.001800
3.158000    773.049120
3.159000    772.408334
3.160000    771.132759
3.161000    769.538961
3.162000    766.355374
3.163000    767.309712
3.164000    765.076453
3.165000    765.390335
3.166000    762.207080
3.167000    762.203403
3.168000    761.246382
3.169000    759.645892
3.170000    759.012461
3.171000    755.508299
3.172000    757.110478
3.173000    756.458296
3.174000    755.185404
3.175000    753.592269
3.176000    751.046817
3.177000    751.362357
3.178000    750.403679
3.179000    748.810876
3.180000    748.164060
3.181000    747.213732
3.182000    746.889479
3.183000    745.931464
3.184000    745.301711
3.185000    746.567247
3.186000    745.290678
3.187000    744.022127
3.188000    743.693202
3.189000    744.650223
3.190000    741.785190
3.191000    742.424651
3.192000    743.059771
3.193000    743.059108
3.194000    740.826181
3.195000    740.822835
3.196000    742.098410
3.197000    741.769154
3.198000    740.503949
3.199000    742.736213
3.200000    739.225359
3.201000    742.102782
3.202000    740.181054
3.203000    740.817168
3.204000    741.773857
3.205000    741.134728
3.206000    740.815511
3.207000    741.770843
3.208000    742.409309
3.209000    740.494605
3.210000    741.765839
3.211000    740.815511
3.212000    742.415338
3.213000    742.404637
3.214000    739.528903
3.215000    742.404305
3.216000    742.722528
3.217000    744.004795
3.218000    745.272684
3.219000    744.954461
3.220000    745.589581
3.221000    744.954129
3.222000    746.228710
3.223000    747.183378
3.224000    747.186062
3.225000    747.818830
3.226000    750.362624
3.227000    748.139736
3.228000    750.046753
3.229000    750.686545
3.230000    749.728862
3.231000    751.964472
3.232000    750.371006
3.233000    752.917815
3.234000    752.275671
3.235000    754.501243
3.236000    753.550252
3.237000    753.867812
3.238000    757.057759
3.239000    757.064120
3.240000    756.735858
3.241000    758.322632
3.242000    760.236674
3.243000    760.869442
3.244000    760.229318
3.245000    758.960436
3.246000    760.557911
3.247000    763.422943
3.248000    763.101043
3.249000    762.147037
3.250000    763.736494
3.251000    765.326614
3.252000    764.690500
3.253000    766.283303
3.254000    766.280620
3.255000    767.876438
3.256000    766.272602
3.257000    767.872429
3.258000    770.095318
3.259000    770.104693
3.260000    771.701506
3.261000    771.694150
3.262000    773.283608
3.263000    774.240628
3.264000    773.916376
3.265000    773.915381
3.266000    774.551827
3.267000    777.420537
3.268000    777.423220
3.269000    777.734419
3.270000    779.324208
3.271000    779.002970
3.272000    780.920358
3.273000    781.871017
3.274000    782.509484
3.275000    782.830721
3.276000    783.142583
3.277000    784.414480
3.278000    784.407457
3.279000    787.596410
3.280000    786.000260
3.281000    786.953934
3.282000    786.636043
3.283000    787.596078
3.284000    788.864961
3.285000    789.183184
3.286000    791.411438
3.287000    790.451403
3.288000    792.368459
3.289000    792.995198
3.290000    792.355737
3.291000    791.718628
3.292000    792.351396
3.293000    793.308749
3.294000    792.658255
3.295000    795.219112
3.296000    794.897543
3.297000    795.533326
3.298000    796.163079
3.299000    795.214771
3.300000    795.526302
3.301000    796.162085
3.302000    797.440674
3.303000    798.066087
3.304000    797.109067
3.305000    798.066087
3.306000    798.386993
3.307000    799.340668
3.308000    798.072117
3.309000    799.347360
3.310000    797.100717
3.311000    799.009391
3.312000    799.651535
3.313000    799.640834
3.314000    798.047699
3.315000    798.683481
3.316000    800.276616
3.317000    799.626786
3.318000    802.184297
3.319000    798.349190
3.320000    800.901698
3.321000    798.993355
3.322000    801.544504
3.323000    800.258559
3.324000    799.616416
3.325000    800.890665
3.326000    801.536818
3.327000    799.615421
3.328000    798.021292
3.329000    799.286497
3.330000    800.250210
3.331000    799.601373
3.332000    801.204878
3.333000    798.961250
3.334000    799.283150
3.335000    797.371792
3.336000    798.000220
3.337000    797.681334
3.338000    797.360428
3.339000    796.716958
3.340000    796.074483
3.341000    796.717290
3.342000    797.346712
3.343000    795.119483
3.344000    796.388365
3.345000    794.473661
3.346000    794.476676
3.347000    795.433696
3.348000    793.200438
3.349000    793.505260
3.350000    791.282703
3.351000    790.957456
3.352000    791.278694
3.353000    790.635887
3.354000    790.314318
3.355000    788.727213
3.356000    789.999773
3.357000    790.952453
3.358000    786.802801
3.359000    788.389244
3.360000    785.209004
3.361000    787.761842
3.362000    786.795115
3.363000    785.519540
3.364000    784.238267
3.365000    784.879416
3.366000    784.561193
3.367000    782.965375
3.368000    782.965043
3.369000    781.689468
3.370000    781.367236
3.371000    779.459888
3.372000    778.813403
3.373000    781.048682
3.374000    779.141333
3.375000    779.773770
3.376000    777.544521
3.377000    778.177289
3.378000    776.908075
3.379000    777.862744
3.380000    776.265268
3.381000    777.222620
3.382000    775.633163
3.383000    776.271298
3.384000    775.625476
3.385000    776.582828
3.386000    774.350232
3.387000    774.349238
3.388000    773.707426
3.389000    773.084696
3.390000    773.714118
3.391000    773.713787
3.392000    772.759449
3.393000    774.027669
3.394000    773.392549
3.395000    772.756103
3.396000    772.441226
3.397000    770.209294
3.398000    771.802097
3.399000    771.169661
3.400000    771.169329
3.401000    771.176022
3.402000    771.809453
3.403000    771.490567
3.404000    771.175359
3.405000    770.212309
3.406000    770.533878
3.407000    769.258634
3.408000    771.169661
3.409000    769.900447
3.410000    768.622188
3.411000    770.854121
3.412000    767.038098
3.413000    768.949456
3.414000    769.264332
3.415000    768.949456
3.416000    768.635242
3.417000    769.582555
3.418000    767.353969
3.419000    769.271025
3.420000    768.631564
3.421000    767.355658
3.422000    767.358672
3.423000    767.678553
3.424000    766.719875
3.425000    768.643955
3.426000    767.995450
3.427000    766.093799
3.428000    766.399300
3.429000    767.047473
3.430000    766.725904
3.431000    765.772893
3.432000    765.139130
3.433000    766.730245
3.434000    766.404998
3.435000    767.356321
3.436000    767.047805
3.437000    766.087107
3.438000    764.812195
3.439000    766.090121
3.440000    764.817561
3.441000    765.451655
3.442000    765.772230
3.443000    767.369374
3.444000    766.728588
3.445000    765.458016
3.446000    765.464709
3.447000    764.827931
3.448000    767.057512
3.449000    765.772230
3.450000    766.090453
3.451000    767.679910
3.452000    766.398637
3.453000    765.784620
3.454000    766.102843
3.455000    766.418051
3.456000    766.412685
3.457000    767.054829
3.458000    766.418714
3.459000    767.690280
3.460000    765.785946
3.461000    769.286761
3.462000    768.968538
3.463000    768.332424
3.464000    768.643955
3.465000    768.342131
3.466000    769.928905
3.467000    770.885926
3.468000    770.247460
3.469000    770.241430
3.470000    769.604321
3.471000    769.927216
3.472000    771.522040
3.473000    769.608662
3.474000    769.293122
3.475000    770.886920
3.476000    771.535425
3.477000    769.932583
3.478000    769.938944
3.479000    771.843278
3.480000    771.839932
3.481000    771.529396
3.482000    773.121536
3.483000    773.119184
3.484000    773.446783
3.485000    772.165510
3.486000    772.482738
3.487000    773.439759
3.488000    771.846624
3.489000    771.846624
3.490000    773.444100
3.491000    774.080214
3.492000    773.443768
3.493000    774.707979
3.494000    773.755299
3.495000    773.754636
3.496000    774.400789
3.497000    774.075873
3.498000    774.719012
3.499000    774.722689
3.500000    776.955285
3.501000    774.716328
3.502000    775.348434
3.503000    776.311815
3.504000    776.312147
3.505000    778.538713
3.506000    778.535035
3.507000    777.905944
3.508000    776.630038
3.509000    777.587722
3.510000    775.676032
3.511000    777.269499
3.512000    777.269167
3.513000    777.909291
3.514000    777.272513
3.515000    777.273839
3.516000    778.545074
3.517000    778.866311
3.518000    779.188212
3.519000    779.502426
3.520000    778.220821
3.521000    777.270162
3.522000    777.603142
3.523000    779.184203
3.524000    777.905944
3.525000    779.174496
3.526000    778.865317
3.527000    780.784377
3.528000    778.859619
3.529000    780.144569
3.530000    779.813956
3.531000    779.816971
3.532000    782.052581
3.533000    779.499079
3.534000    780.459115
3.535000    778.872672
3.536000    780.777669
3.537000    778.866311
3.538000    780.459115
3.539000    778.551435
3.540000    781.734027
3.541000    779.501763
3.542000    780.457094
3.543000    779.820649
3.544000    781.737720
3.545000    781.108298
3.546000    781.095892
3.547000    780.453417
3.548000    781.092877
3.549000    781.735021
3.550000    779.827341
3.551000    781.102932
3.552000    779.823663
3.553000    780.147600
3.554000    780.463124
3.555000    780.459115
3.556000    782.062635
3.557000    779.505109
3.558000    781.426521
3.559000    779.194589
3.560000    778.876366
3.561000    781.101606
3.562000    778.876034
3.563000    779.515163
3.564000    779.193926
3.565000    781.114659
3.566000    780.157639
3.567000    778.557480
3.568000    780.475530
3.569000    778.234206
3.570000    779.515163
3.571000    781.109293
3.572000    777.600112
3.573000    777.601106
3.574000    776.974383
3.575000    777.285914
3.576000    778.559832
3.577000    777.283215
3.578000    775.378897
3.579000    775.695131
3.580000    777.286577
3.581000    776.331577
3.582000    776.973721
3.583000    775.692432
3.584000    777.609835
3.585000    776.020378
3.586000    776.652814
3.587000    776.652483
3.588000    776.967691
3.589000    775.695794
3.590000    776.659507
3.591000    775.063026
3.592000    774.420866
3.593000    774.102975
3.594000    773.465866
3.595000    774.738095
3.596000    773.154351
3.597000    773.774382
3.598000    773.459836
3.599000    775.059348
3.600000    772.190622
3.601000    772.836791
3.602000    773.473237
3.603000    772.201008
3.604000    771.550499
3.605000    772.836128
3.606000    773.151999
3.607000    772.521583
3.608000    772.518237
3.609000    770.282279
3.610000    772.190954
3.611000    771.551493
3.612000    771.558517
3.613000    772.193637
3.614000    770.288656
3.615000    769.331288
3.616000    773.469559
3.617000    771.236617
3.618000    769.328605
3.619000    771.548147
3.620000    771.547816
3.621000    769.960710
3.622000    768.056708
3.623000    769.324927
3.624000    771.242330
3.625000    771.878445
3.626000    770.279927
3.627000    771.239963
3.628000    769.646496
3.629000    771.246671
3.630000    770.607542
3.631000    770.288656
3.632000    770.288987
3.633000    772.837123
3.634000    771.243325
3.635000    770.603517
3.636000    771.557854
3.637000    770.606879
3.638000    769.647159
3.639000    771.564894
3.640000    770.606879
3.641000    771.233933
3.642000    770.928779
3.643000    769.328605
3.644000    770.276913
3.645000    771.567246
3.646000    772.839474
3.647000    771.256047
3.648000    774.121410
3.649000    773.164721
3.650000    772.524929
3.651000    771.251012
3.652000    772.839806
3.653000    773.168067
3.654000    770.929442
3.655000    771.898522
3.656000    772.841132
3.657000    771.892492
3.658000    773.807859
3.659000    773.162038
3.660000    771.893155
3.661000    772.214062
3.662000    773.811206
3.663000    774.132775
3.664000    774.768889
3.665000    774.441291
3.666000    773.175754
3.667000    775.726241
3.668000    773.500338
3.669000    772.857863
3.670000    775.733265
3.671000    775.742972
3.672000    773.186124
3.673000    775.097151
3.674000    777.012186
3.675000    775.106858
3.676000    775.097151
3.677000    775.415705
3.678000    776.058181
3.679000    777.342800
3.680000    777.025571
3.681000    778.299489
3.682000    776.382764
3.683000    776.697641
3.684000    777.022888
3.685000    777.670730
3.686000    775.760698
3.687000    776.390451
3.688000    776.396812
3.689000    777.027229
3.690000    777.668378
3.691000    775.757020
3.692000    776.082267
3.693000    777.993625
3.694000    776.397144
3.695000    777.681763
3.696000    776.082599
3.697000    777.361188
3.698000    775.767722
3.699000    778.000649
3.700000    777.361851
3.701000    777.364866
3.702000    776.738127
3.703000    776.735775
3.704000    777.689118
3.705000    777.692796
3.706000    777.061022
3.707000    776.739785
3.708000    778.644782
3.709000    777.702503
3.710000    777.700814
3.711000    778.336597
3.712000    778.348988
3.713000    776.750155
3.714000    778.339944
3.715000    779.309686
3.716000    779.310349
3.717000    776.756847
3.718000    779.307334
3.719000    778.678575
3.720000    775.809865
3.721000    778.038783
3.722000    778.364030
3.723000    779.632250
3.724000    778.997130
3.725000    779.000144
3.726000    779.007168
3.727000    779.967867
3.728000    780.285758
3.729000    778.060186
3.730000    779.328075
3.731000    778.378741
3.732000    780.302489
3.733000    779.981914
3.734000    779.024562
3.735000    779.664023
3.736000    779.992285
3.737000    779.041956
3.738000    781.267528
3.739000    781.271869
3.740000    779.683437
3.741000    778.413197
3.742000    781.281907
3.743000    780.967031
3.744000    781.282239
3.745000    779.689104
3.746000    781.616198
3.747000    781.301985
3.748000    780.332242
3.749000    779.709181
3.750000    780.667196
3.751000    780.033765
3.752000    780.676903
3.753000    780.680250
3.754000    779.722898
3.755000    780.362027
3.756000    780.700658
3.757000    781.329417
3.758000    781.323719
3.759000    780.051159
3.760000    778.150834
3.761000    779.105172
3.762000    779.422732
3.763000    778.471741
3.764000    776.249184
3.765000    778.795993
3.766000    777.524096
3.767000    778.797650
3.768000    777.849674
3.769000    778.488803
3.770000    778.817728
3.771000    776.584801
3.772000    776.902361
3.773000    776.584801
3.774000    777.227939
3.775000    776.270587
3.776000    776.592488
3.777000    776.919755
3.778000    776.595502
3.779000    776.913725
3.780000    777.238972
3.781000    775.973104
3.782000    775.652530
3.783000    775.973767
3.784000    774.383316
3.785000    774.391334
3.786000    776.948182
3.787000    775.354053
3.788000    776.629959
3.789000    774.722942
3.790000    775.358725
3.791000    776.319092
3.792000    775.686655
3.793000    774.729966
3.794000    776.644670
3.795000    775.368432
3.796000    777.602353
3.797000    774.429137
3.798000    774.103890
3.799000    776.347850
3.800000    773.475794
3.801000    772.839348
3.802000    775.072607
3.803000    774.124630
3.804000    776.036320
3.805000    776.364913
3.806000    775.408224
3.807000    776.052719
3.808000    775.728467
3.809000    775.103717
3.810000    774.463594
3.811000    775.732808
3.812000    775.110410
3.813000    775.110078
3.814000    775.428633
3.815000    775.117434
3.816000    773.845536
3.817000    776.078795
3.818000    776.718255
3.819000    774.492352
3.820000    776.082472
3.821000    774.495036
3.822000    774.496030
3.823000    772.902564
3.824000    774.823960
3.825000    775.784658
3.826000    774.506732
3.827000    775.149870
3.828000    776.428128
3.829000    775.155899
3.830000    774.202225
3.831000    774.523794
3.832000    775.480815
3.833000    775.805730
3.834000    774.851724
3.835000    776.777130
3.836000    774.219951
3.837000    777.098699
3.838000    774.866104
3.839000    775.824119
3.840000    775.508910
3.841000    775.824450
3.842000    774.241354
3.843000    774.559577
3.844000    776.791178
3.845000    775.527299
3.846000    775.532997
3.847000    773.615610
3.848000    774.252055
3.849000    774.252055
3.850000    774.262426
3.851000    774.271801
3.852000    772.043215
3.853000    775.225807
3.854000    774.590687
3.855000    775.232168
3.856000    774.286181
3.857000    771.735694
3.858000    773.961928
3.859000    773.968952
3.860000    773.654075
3.861000    774.299897
3.862000    773.660768
3.863000    773.660768
3.864000    770.166314
3.865000    772.071974
3.866000    772.720147
3.867000    772.402918
3.868000    773.357919
3.869000    772.092382
3.870000    773.046720
3.871000    772.731512
3.872000    771.770482
3.873000    771.148084
3.874000    772.423659
3.875000    772.101758
3.876000    770.827509
3.877000    771.791222
3.878000    771.155439
3.879000    769.244413
3.880000    773.068123
3.881000    771.162463
3.882000    771.808948
3.883000    769.890566
3.884000    770.534367
3.885000    771.501426
3.886000    771.498080
3.887000    769.580030
3.888000    770.868658
3.889000    771.819318
3.890000    770.548083
3.891000    768.957632
3.892000    770.868990
3.893000    770.558122
3.894000    770.879691
3.895000    770.236884
3.896000    769.286888
3.897000    771.843404
3.898000    768.021352
3.899000    768.979035
3.900000    768.983044
3.901000    769.297258
3.902000    770.257625
3.903000    770.260971
3.904000    769.625520
3.905000    770.277702
3.906000    770.903446
3.907000    769.635890
3.908000    770.596588
3.909000    769.964151
3.910000    768.363992
3.911000    769.013492
3.912000    770.279359
3.913000    770.282043
3.914000    768.695932
3.915000    768.060149
3.916000    769.650269
3.917000    770.296754
3.918000    769.345100
3.919000    768.709980
3.920000    770.302783
3.921000    768.706633
3.922000    769.667332
3.923000    768.392420
3.924000    769.027871
3.925000    769.661302
3.926000    767.119859
3.927000    768.401464
3.928000    768.726379
3.929000    769.368855
3.930000    769.671341
3.931000    769.681048
3.932000    769.992578
3.933000    770.005963
3.934000    770.326538
3.935000    771.279881
3.936000    769.054972
3.937000    769.687078
3.938000    770.334556
3.939000    769.366503
3.940000    768.736749
3.941000    770.970339
3.942000    768.737744
3.943000    769.695427
3.944000    769.698442
3.945000    770.009973
3.946000    768.416838
3.947000    769.699105
3.948000    771.613809
3.949000    768.750797
3.950000    770.662818
3.951000    770.984056
3.952000    771.620502
3.953000    770.344927
3.954000    770.348273
3.955000    771.311986
3.956000    770.673188
3.957000    772.584546
3.958000    771.958470
3.959000    771.309966
3.960000    771.949095
3.961000    772.906115
3.962000    772.591238
3.963000    773.228016
3.964000    773.556277
3.965000    773.545244
3.966000    774.827512
3.967000    771.644588
3.968000    772.589550
3.969000    773.879867
3.970000    774.510283
3.971000    774.515981
3.972000    774.194744
3.973000    773.883545
3.974000    772.926193
3.975000    773.886891
3.976000    772.605286
3.977000    772.612642
3.978000    773.241732
3.979000    772.618671
3.980000    774.523005
3.981000    774.205445
3.982000    773.569662
3.983000    775.801263
3.984000    775.480026
3.985000    774.527014
3.986000    774.205777
3.987000    775.169490
3.988000    775.169490
3.989000    774.527346
3.990000    774.208791
3.991000    774.203093
3.992000    774.529698
3.993000    775.172836
3.994000    775.496425
3.995000    774.860642
3.996000    775.812959
3.997000    773.261478
3.998000    777.730347
3.999000    774.540399
4.000000    774.537053
4.001000    772.944250
4.002000    774.539736
4.003000    776.139564
4.004000    773.255449
4.005000    772.946933
4.006000    773.907631
4.007000    774.224860
4.008000    775.503781
4.009000    773.589408
4.010000    773.913329
4.011000    773.592091
4.012000    774.228537
4.013000    773.269165
4.014000    774.867666
4.015000    774.225854
4.016000    773.270854
4.017000    773.274200
4.018000    773.910977
4.019000    773.917670
4.020000    775.192250
4.021000    775.500435
4.022000    775.182543
4.023000    773.602462
4.024000    773.274200
4.025000    772.960318
4.026000    775.192250
4.027000    773.910314
4.028000    774.559482
4.029000    774.556467
4.030000    775.510142
4.031000    773.907963
4.032000    775.507790
4.033000    773.277546
4.034000    772.959323
4.035000    775.202620
4.036000    775.198611
4.037000    772.647793
4.038000    772.966679
4.039000    775.188573
4.040000    774.562828
4.041000    773.282218
4.042000    775.516503
4.043000    774.875022
4.044000    776.153280
4.045000    776.474849
4.046000    777.113315
4.047000    774.557462
4.048000    777.431538
4.049000    775.835389
4.050000    778.385544
4.051000    778.391905
4.052000    778.077691
4.053000    776.150265
4.054000    778.078023
4.055000    777.121002
4.056000    777.120339
4.057000    776.481542
4.058000    777.756785
4.059000    776.481210
4.060000    776.487240
4.061000    779.667811
4.062000    776.806125
4.063000    778.080706
4.064000    779.041073
4.065000    779.991732
4.066000    779.676856
4.067000    777.435547
4.068000    777.445586
4.069000    779.356612
4.070000    779.356281
4.071000    780.637885
4.072000    778.405953
4.073000    779.362973
4.074000    778.399592
4.075000    778.402607
4.076000    778.078354
4.077000    777.448601
4.078000    778.717152
4.079000    777.448601
4.080000    779.038058
4.081000    779.038058
4.082000    779.683880
4.083000    778.411982
4.084000    778.726528
4.085000    779.359296
4.086000    780.004786
4.087000    779.037727
4.088000    780.001440
4.089000    778.090745
4.090000    777.765498
4.091000    779.051111
4.092000    779.361648
4.093000    778.087398
4.094000    778.722187
4.095000    777.133061
4.096000    778.093428
4.097000    779.037727
4.098000    777.136076
4.099000    778.092765
4.100000    778.410988
4.101000    778.736235
4.102000    774.903149
4.103000    777.772853
4.104000    777.456982
4.105000    778.731894
4.106000    777.444592
4.107000    776.495952
4.108000    775.228064
4.109000    776.503639
4.110000    775.861164
4.111000    777.784249
4.112000    778.410656
4.113000    775.859838
4.114000    775.545956
4.115000    774.905832
4.116000    776.175046
4.117000    774.899471
4.118000    774.270049
4.119000    776.817190
4.120000    775.220709
4.121000    776.180413
4.122000    777.141774
4.123000    774.269718
4.124000    775.538932
4.125000    773.623565
4.126000    773.942119
4.127000    773.305010
4.128000    775.226407
4.129000    775.220046
4.130000    773.623565
4.131000    773.620219
4.132000    774.905169
4.133000    774.580585
4.134000    772.676583
4.135000    775.859175
4.136000    775.855829
4.137000    774.580917
4.138000    775.537606
4.139000    775.859175
4.140000    774.583269
4.141000    774.262031
4.142000    774.269718
4.143000    776.189788
4.144000    775.216368
4.145000    774.901492
4.146000    772.987450
4.147000    775.534260
4.148000    775.861858
4.149000    776.186442
4.150000    776.813512
4.151000    775.544630
4.152000    776.183427
4.153000    776.819210
4.154000    776.176735
4.155000    775.222729
4.156000    776.183427
4.157000    775.551322
4.158000    776.497641
4.159000    777.776894
4.160000    775.534923
4.161000    776.488597
4.162000    777.773216
4.163000    778.734246
4.164000    778.094785
4.165000    777.458339
4.166000    778.091439
4.167000    776.182433
4.168000    775.866199
4.169000    776.821894
4.170000    775.864873
4.171000    779.054158
4.172000    778.412677
4.173000    777.782260
4.174000    778.416023
4.175000    777.779577
4.176000    778.746968
4.177000    780.644941
4.178000    779.690604
4.179000    780.336094
4.180000    781.605308
4.181000    780.329733
4.182000    778.740275
4.183000    780.971876
4.184000    782.571704
4.185000    780.021217
4.186000    781.614683
4.187000    780.020885
4.188000    780.982578
4.189000    780.332416
4.190000    780.024232
4.191000    781.929229
4.192000    779.060519
4.193000    779.703657
4.194000    780.017871
4.195000    781.293777
4.196000    780.660346
4.197000    779.385434
4.198000    780.660015
4.199000    781.298812
4.200000    780.020554
4.201000    783.532071
4.202000    780.660015
4.203000    780.657331
4.204000    780.342123
4.205000    781.944965
4.206000    780.024563
4.207000    780.984598
4.208000    782.253481
4.209000    780.981252
4.210000    781.627074
4.211000    780.345138
4.212000    780.663361
4.213000    779.709023
4.214000    779.388117
4.215000    779.706340
4.216000    779.394147
4.217000    779.705677
4.218000    778.755018
4.219000    779.075924
4.220000    780.033607
4.221000    780.676083
4.222000    779.396830
4.223000    780.036622
4.224000    779.088977
4.225000    778.446833
4.226000    779.073241
4.227000    780.354514
4.228000    778.758032
4.229000    780.035959
4.230000    778.758364
4.231000    780.685127
4.232000    779.715716
4.233000    780.676414
4.234000    781.630088
4.235000    779.083279
4.236000    780.672736
4.237000    781.317895
4.238000    781.318227
4.239000    779.400839
4.240000    778.137986
4.241000    780.673068
4.242000    780.367567
4.243000    779.407532
4.244000    780.685790
4.245000    781.630088
4.246000    780.364884
4.247000    780.046329
4.248000    780.050007
4.249000    781.639796
4.250000    780.373928
4.251000    780.682775
4.252000    780.685458
4.253000    779.734799
4.254000    780.043646
4.255000    778.454189
4.256000    780.689136
4.257000    780.053353
4.258000    780.056368
4.259000    779.740828
4.260000    780.377274
4.261000    780.695829
4.262000    779.737814
4.263000    779.738145
4.264000    781.327934
4.265000    780.384298
4.266000    781.330617
4.267000    779.426283
4.268000    779.744175
4.269000    779.737482
4.270000    780.698180
4.271000    778.793846
4.272000    781.022433
4.273000    779.105377
4.274000    780.386318
4.275000    781.022764
4.276000    781.344002
4.277000    780.071773
4.278000    780.382641
4.279000    780.707556
4.280000    782.294993
4.281000    779.746858
4.282000    780.068095
4.283000    777.514594
4.284000    779.753219
4.285000    778.474961
4.286000    778.153723
4.287000    780.388670
4.288000    778.795535
4.289000    779.750535
4.290000    777.835168
4.291000    779.116441
4.292000    777.198723
4.293000    779.120119
4.294000    780.399040
4.295000    779.110080
4.296000    778.798218
4.297000    779.438011
4.298000    780.391685
4.299000    778.476318
4.300000    777.841198
4.301000    779.120119
4.302000    777.513931
4.303000    777.205415
4.304000    777.204752
4.305000    778.483673
4.306000    778.479664
4.307000    776.245380
4.308000    779.440694
4.309000    776.571984
4.310000    780.080486
4.311000    776.257107
4.312000    778.162436
4.313000    778.168134
4.314000    778.483342
4.315000    778.165782
4.316000    778.807926
4.317000    778.490366
4.318000    778.168797
4.319000    778.165782
4.320000    777.532682
4.321000    778.483342
4.322000    777.844544
4.323000    779.751561
4.324000    777.529336
4.325000    777.535697
4.326000    778.800902
4.327000    777.850574
4.328000    780.394700
4.329000    777.532351
4.330000    779.126149
4.331000    780.085852
4.332000    779.125486
4.333000    779.129495
4.334000    778.165782
4.335000    775.313803
4.336000    779.129495
4.337000    778.810609
4.338000    779.126149
4.339000    778.175820
4.340000    779.132178
4.341000    779.762263
4.342000    778.172474
4.343000    780.722961
4.344000    780.404738
4.345000    780.089199
4.346000    779.453747
4.347000    780.089862
4.348000    779.453747
4.349000    780.417792
4.350000    779.451727
4.351000    777.224829
4.352000    780.093208
4.353000    776.267146
4.354000    780.722961
4.355000    780.093539
4.356000    780.726307
4.357000    777.860281
4.358000    778.810940
4.359000    778.181187
4.360000    778.808257
4.361000    780.086515
4.362000    778.489703
4.363000    777.539375
4.364000    779.128500
4.365000    777.863296
4.366000    777.860281
4.367000    779.135193
4.368000    778.811272
4.369000    779.767961
4.370000    776.584706
4.371000    777.538049
4.372000    779.137876
4.373000    777.856272
4.374000    778.493049
4.375000    777.538380
4.376000    776.906275
4.377000    777.539043
4.378000    777.538712
4.379000    776.896568
4.380000    778.178504
4.381000    776.263468
4.382000    778.817633
4.383000    776.903260
4.384000    778.501762
4.385000    778.177841
4.386000    777.862633
4.387000    777.216811
4.388000    776.905281
4.389000    778.177178
4.390000    777.541726
4.391000    776.901934
4.392000    776.899583
4.393000    778.492055
4.394000    776.256444
4.395000    776.901271
4.396000    776.897594
4.397000    775.305453
4.398000    776.577019
4.399000    776.895242
4.400000    775.308136
4.401000    774.348101
4.402000    777.538380
4.403000    775.310820
4.404000    775.947597
4.405000    775.947929
4.406000    774.993260
4.407000    774.033224
4.408000    776.586395
4.409000    775.947929
4.410000    774.669007
4.411000    775.308136
4.412000    777.540069
4.413000    773.710992
4.414000    777.216480
4.415000    777.543747
4.416000    774.029878
4.417000    776.904949
4.418000    776.590072
4.419000    774.996937
4.420000    774.996606
4.421000    775.315492
4.422000    776.581028
4.423000    775.950612
4.424000    776.584374
4.425000    775.314829
4.426000    774.356814
4.427000    775.314829
4.428000    777.551102
4.429000    775.951606
4.430000    775.944914
4.431000    774.672685
4.432000    775.314497
4.433000    775.951606
4.434000    775.961313
4.435000    777.548750
4.436000    777.232879
4.437000    776.591067
4.438000    774.361486
4.439000    776.912305
4.440000    775.328877
4.441000    775.954952
4.442000    774.361486
4.443000    776.914988
4.444000    775.633715
4.445000    776.908958
4.446000    776.273838
4.447000    777.240235
4.448000    775.955284
4.449000    776.289575
4.450000    776.919328
4.451000    776.598091
4.452000    776.598091
4.453000    775.650777
4.454000    776.599085
4.455000    776.292590
4.456000    774.368510
4.457000    775.008634
4.458000    776.598754
4.459000    776.287223
4.460000    776.287555
4.461000    774.684713
4.462000    776.280531
4.463000    775.008302
4.464000    775.959625
4.465000    776.277516
4.466000    775.326856
4.467000    776.602431
4.468000    775.324173
4.469000    775.334212
4.470000    777.881353
4.471000    776.281857
4.472000    774.373845
4.473000    777.249247
4.474000    776.606441
4.475000    774.701444
4.476000    776.934039
4.477000    776.294579
4.478000    777.245570
4.479000    776.298256
4.480000    775.017646
4.481000    774.063309
4.482000    777.892717
4.483000    775.342562
4.484000    776.296236
4.485000    775.988052
4.486000    774.388556
4.487000    774.705784
4.488000    775.345908
4.489000    775.667477
4.490000    774.385541
4.491000    776.621814
4.492000    777.254251
4.493000    775.343225
4.494000    776.628507
4.495000    775.989378
4.496000    777.264621
4.497000    775.031694
4.498000    776.634868
4.499000    775.993055
4.500000    776.308264
4.501000    778.225651
4.502000    777.272308
4.503000    776.944709
4.504000    778.225319
4.505000    778.557922
4.506000    777.283010
4.507000    776.954748
4.508000    775.368306
4.509000    777.603916
4.510000    777.590531
4.511000    778.234001
4.512000    777.276980
4.513000    777.919124
4.514000    777.591857
4.515000    777.595535
4.516000    776.635168
4.517000    777.923796
4.518000    778.556564
4.519000    778.877802
4.520000    778.245034
4.521000    778.877802
4.522000    778.252389
4.523000    776.331656
4.524000    778.888504
4.525000    778.567597
4.526000    779.203380
4.527000    776.659917
4.528000    777.302724
4.529000    778.578631
4.530000    778.889167
4.531000    780.485648
4.532000    777.932477
4.533000    778.899537
4.534000    777.939170
4.535000    778.897516
4.536000    781.132464
4.537000    780.175775
4.538000    780.818913
4.539000    781.766558
4.540000    779.540986
4.541000    780.501353
4.542000    778.269089
4.543000    778.904872
4.544000    780.190485
4.545000    779.554703
4.546000    780.826931
4.547000    782.430768
4.548000    780.827263
4.549000    780.516395
4.550000    781.152841
4.551000    780.524082
4.552000    780.831603
4.553000    780.834950
4.554000    780.517390
4.555000    783.074569
4.556000    781.481766
4.557000    783.082256
4.558000    782.433088
4.559000    781.803998
4.560000    781.807675
4.561000    784.037256
4.562000    782.768374
4.563000    781.804661
4.564000    782.454160
4.565000    779.904667
4.566000    782.766353
4.567000    782.452471
4.568000    784.056643
4.569000    783.091932
4.570000    784.059658
4.571000    782.462845
4.572000    783.106315
4.573000    782.458142
4.574000    784.376192
4.575000    783.421523
4.576000    785.333544
4.577000    784.071354
4.578000    783.429873
4.579000    782.468843
4.580000    783.755451
4.581000    781.834718
4.582000    785.988710
4.583000    784.388882
4.584000    784.703759
4.585000    782.478850
4.586000    782.482528
4.587000    784.714461
4.588000    781.525508
4.589000    782.804429
4.590000    782.801083
4.591000    783.440875
4.592000    782.481834
4.593000    785.671450
4.594000    783.757740
4.595000    783.448561
4.596000    783.449224
4.597000    784.085670
4.598000    782.493198
4.599000    783.448199
4.600000    781.864108
4.601000    785.363234
4.602000    783.454891
4.603000    783.771094
4.604000    782.501880
4.605000    782.173950
4.606000    784.407208
4.607000    783.131964
4.608000    784.089979
4.609000    782.500522
4.610000    781.549863
4.611000    782.179616
4.612000    782.820071
4.613000    779.960737
4.614000    781.863051
4.615000    780.909376
4.616000    781.224253
4.617000    780.280617
4.618000    781.553840
4.619000    781.539793
4.620000    781.560201
4.621000    781.553177
4.622000    780.282275
4.623000    780.591122
4.624000    779.644140
4.625000    780.286947
4.626000    781.864345
4.627000    779.962363
4.628000    778.690466
4.629000    781.556161
4.630000    779.963689
4.631000    778.367539
4.632000    779.649475
4.633000    780.600466
4.634000    778.060349
4.635000    778.362173
4.636000    779.329563
4.637000    778.054983
4.638000    777.090938
4.639000    779.332909
4.640000    775.825733
4.641000    777.419863
4.642000    778.053625
4.643000    776.142268
4.644000    776.459828
4.645000    777.739743
4.646000    774.864672
4.647000    775.826033
4.648000    775.194260
4.649000    775.184221
4.650000    775.504464
4.651000    775.187567
4.652000    774.545092
4.653000    776.142236
4.654000    774.867324
4.655000    775.178855
4.656000    772.625684
4.657000    773.900596
4.658000    773.582705
4.659000    771.033544
4.660000    771.990896
4.661000    774.545061
4.662000    771.670653
4.663000    774.227501
4.664000    774.215110
4.665000    774.536348
4.666000    772.301069
4.667000    772.301069
4.668000    769.758600
4.669000    773.250371
4.670000    772.932480
4.671000    771.660914
4.672000    771.972776
4.673000    771.654885
4.674000    771.019433
4.675000    770.689151
4.676000    771.321919
4.677000    772.603524
4.678000    772.283281
4.679000    770.365230
4.680000    771.005022
4.681000    769.727427
4.682000    770.678087
4.683000    769.724744
4.684000    770.675403
4.685000    769.403838
4.686000    768.121902
4.687000    770.348468
4.688000    768.759010
4.689000    768.755333
4.690000    769.714011
4.691000    768.752981
4.692000    768.744268
4.693000    770.016828
4.694000    769.381377
4.695000    770.341744
4.696000    771.289720
4.697000    768.736218
4.698000    771.601582
4.699000    770.012788
4.700000    771.274315
4.701000    769.675482
4.702000    771.272626
4.703000    773.511583
4.704000    770.951720
4.705000    769.672467
4.706000    769.975285
4.707000    771.256226
4.708000    769.970944
4.709000    771.890321
4.710000    772.204866
4.711000    772.205197
4.712000    773.157183
4.713000    774.756347
4.714000    775.071555
4.715000    775.071887
4.716000    774.754327
4.717000    776.974863
4.718000    776.968502
4.719000    777.283711
4.720000    776.001112
4.721000    775.998428
4.722000    778.233376
4.723000    776.942727
4.724000    777.259956
4.725000    778.851402
4.726000    777.900411
4.727000    777.576490
4.728000    778.524466
4.729000    779.475126
4.730000    778.521120
4.731000    780.112234
4.732000    779.154882
4.733000    777.875961
4.734000    778.187492
4.735000    779.781290
4.736000    777.225436
4.737000    780.732281
4.738000    779.451671
4.739000    780.409023
4.740000    779.130764
4.741000    781.678237
4.742000    780.401999
4.743000    781.357993
4.744000    781.354979
4.745000    780.076720
4.746000    779.752137
4.747000    779.106646
4.748000    779.103300
4.749000    779.740078
4.750000    779.734711
4.751000    780.684045
4.752000    780.691400
4.753000    779.088226
4.754000    780.043227
4.755000    779.089221
4.756000    780.993886
4.757000    780.351411
4.758000    780.354757
4.759000    777.473657
4.760000    779.703901
4.761000    779.064109
4.762000    780.025470
4.763000    778.422628
4.764000    778.740188
4.765000    778.422296
4.766000    778.091683
4.767000    780.003704
4.768000    779.364906
4.769000    780.321927
4.770000    780.001352
4.771000    779.046352
4.772000    778.403876
4.773000    778.398178
4.774000    779.034624
4.775000    778.073926
4.776000    779.660037
4.777000    779.031941
4.778000    777.111539
4.779000    776.788975
4.780000    775.514063
4.781000    776.786292
4.782000    777.409353
4.783000    776.134772
4.784000    776.459688
4.785000    777.399977
4.786000    775.809857
4.787000    776.118704
4.788000    774.194956
4.789000    774.200654
4.790000    773.876733
4.791000    774.518214
4.792000    774.198302
4.793000    772.923059
4.794000    775.138923
4.795000    772.912688
4.796000    772.598143
4.797000    773.217858
4.798000    771.945961
4.799000    770.985594
4.800000    770.654980
4.801000    769.372382
4.802000    772.248115
4.803000    770.965848
4.804000    769.372713
4.805000    770.326719
4.806000    771.281719
4.807000    769.688253
4.808000    771.277710
4.809000    769.680897
4.810000    769.035739
4.811000    769.979374
4.812000    770.301275
4.813000    769.990076
4.814000    768.386571
4.815000    769.334547
4.816000    767.426536
4.817000    769.330538
4.818000    768.055295
4.819000    768.046250
4.820000    768.685048
4.821000    769.639385
4.822000    767.718320
4.823000    766.131878
4.824000    766.118824
4.825000    765.800601
4.826000    765.483041
4.827000    766.118493
4.828000    766.433370
4.829000    764.190404
4.830000    765.154780
4.831000    763.558299
4.832000    761.317322
4.833000    764.821483
4.834000    763.863137
4.835000    762.263972
4.836000    763.227354
4.837000    762.578518
4.838000    762.889717
4.839000    763.844054
4.840000    762.565796
4.841000    761.929681
4.842000    762.877326
4.843000    761.281839
4.844000    760.330185
4.845000    760.002255
4.846000    761.283860
4.847000    761.595390
4.848000    760.317463
4.849000    760.953246
4.850000    760.638038
4.851000    759.366141
4.852000    760.313786
4.853000    759.992217
4.854000    760.942545
4.855000    761.576639
4.856000    762.854234
4.857000    759.983172
4.858000    762.851219
4.859000    760.622301
4.860000    760.622633
4.861000    760.294040
4.862000    762.202714
4.863000    760.942876
4.864000    760.612263
4.865000    759.969787
4.866000    759.972139
4.867000    759.975154
4.868000    760.611268
4.869000    760.607922
4.870000    762.515602
4.871000    761.561596
4.872000    761.551889
4.873000    761.876805
4.874000    760.595532
4.875000    761.234329
4.876000    761.873790
4.877000    759.315616
4.878000    761.545860
4.879000    760.276646
4.880000    761.220944
4.881000    760.594537
4.882000    759.630493
4.883000    757.397566
4.884000    761.535821
4.885000    759.620786
4.886000    760.583836
4.887000    758.987023
4.888000    762.167926
4.889000    759.938677
4.890000    760.259915
4.891000    758.344216
4.892000    759.613762
4.893000    759.285832
4.894000    758.653063
4.895000    758.967277
4.896000    761.524457
4.897000    757.374142
4.898000    758.963599
4.899000    759.285169
4.900000    759.600377
4.901000    760.553720
4.902000    760.563758
4.903000    759.586329
4.904000    762.776608
4.905000    762.131118
4.906000    760.222775
4.907000    760.232482
4.908000    759.897528
4.909000    761.176781
4.910000    759.898191
4.911000    759.577285
4.912000    761.167073
4.913000    761.484965
4.914000    760.531290
4.915000    761.160049
4.916000    762.756862
4.917000    761.481287
4.918000    763.710868
4.919000    761.478935
4.920000    762.425586
4.921000    764.343305
4.922000    763.376245
4.923000    764.661528
4.924000    765.924049
4.925000    765.598802
4.926000    766.880407
4.927000    764.012360
4.928000    765.277565
4.929000    765.910333
4.930000    764.637772
4.931000    765.589758
4.932000    765.589758
4.933000    766.864338
4.934000    767.172523
4.935000    766.540086
4.936000    768.447766
4.937000    765.899963
4.938000    768.444751
4.939000    767.805954
4.940000    769.384709
4.941000    769.716980
4.942000    769.702932
4.943000    766.831871
4.944000    768.102442
4.945000    767.784882
4.946000    767.142407
4.947000    767.778190
4.948000    770.014794
4.949000    770.010785
4.950000    768.404597
4.951000    769.676163
4.952000    768.728518
4.953000    769.672816
4.954000    771.275990
4.955000    768.399262
4.956000    769.987030
4.957000    768.397573
4.958000    769.030673
4.959000    769.662778
4.960000    770.940704
4.961000    770.297898
4.962000    769.967284
4.963000    770.927983
4.964000    768.376833
4.965000    769.973645
4.966000    769.959929
4.967000    769.005592
4.968000    769.958934
4.969000    768.039195
4.970000    769.313444
4.971000    771.861248
4.972000    768.677661
4.973000    770.263441
4.974000    772.814591
4.975000    769.940183
4.976000    768.988198
4.977000    769.296713
4.978000    770.250719
4.979000    771.528646
4.980000    769.293036
4.981000    770.892863
4.982000    768.017461
4.983000    769.928487
4.984000    769.603572
4.985000    770.560924
4.986000    768.642873
4.987000    770.233656
4.988000    768.642873
4.989000    770.232662
4.990000    768.646220
4.991000    769.592538
4.992000    769.268618
4.993000    770.215931
4.994000    768.314280
4.995000    768.616435
4.996000    768.619450
4.997000    769.258910
4.998000    768.943039
4.999000    767.339866
