BioWare Version 5.3.0.7 Export
Device:	4827094 9260AA6	4827095 9260AA6
Samples (#):	4000	4000
Rate (Hz):	1000.000000	1000.000000
Contact period start (sample #):	0	0
Contact period end (sample #):	3999	3999
Contact period start time (s):	0.000000	0.000000
Contact period end time (s):	3.999000	3.999000
First sample time (s):	0.000000	0.000000
Normalized force (N):	0.727714	0.727714
Normalized length (m):	1.000000	1.000000
File Information
Date	Nov 14
Name	
ID	
Classification	
Description	
abs time (s)	Fz	Fz
	N	N
0.000000    725.085564
0.001000    724.770645
0.002000    723.656700
0.003000    724.609718
0.004000    724.134674
0.005000    724.292984
0.006000    724.135201
0.007000    724.930916
0.008000    724.769478
0.009000    723.974274
0.010000    723.815300
0.011000    726.201485
0.012000    725.407234
0.013000    723.975899
0.014000    725.089676
0.015000    723.817642
0.016000    724.450439
0.017000    725.090340
0.018000    722.862968
0.019000    723.339294
0.020000    723.022896
0.021000    723.818306
0.022000    723.181511
0.023000    724.136665
0.024000    723.497749
0.025000    723.340958
0.026000    723.180527
0.027000    724.134697
0.028000    723.340134
0.029000    724.136337
0.030000    722.705025
0.031000    722.864632
0.032000    722.705498
0.033000    723.497902
0.034000    722.385941
0.035000    722.068077
0.036000    722.228516
0.037000    722.226341
0.038000    723.023399
0.039000    722.547203
0.040000    721.272842
0.041000    722.387260
0.042000    721.591072
0.043000    722.068893
0.044000    721.750824
0.045000    722.068733
0.046000    721.272682
0.047000    720.637863
0.048000    722.068405
0.049000    721.751816
0.050000    722.386955
0.051000    721.590225
0.052000    722.069893
0.053000    723.183662
0.054000    721.432281
0.055000    722.863968
0.056000    721.116203
0.057000    722.547546
0.058000    722.069229
0.059000    721.431114
0.060000    722.226860
0.061000    721.432121
0.062000    723.023903
0.063000    721.908943
0.064000    722.546074
0.065000    721.590233
0.066000    722.544907
0.067000    722.544899
0.068000    721.908958
0.069000    721.432274
0.070000    723.023048
0.071000    722.227669
0.072000    722.863289
0.073000    722.702522
0.074000    721.750488
0.075000    723.339149
0.076000    723.337654
0.077000    723.341133
0.078000    722.385124
0.079000    724.293472
0.080000    724.135857
0.081000    723.021721
0.082000    723.340141
0.083000    723.498428
0.084000    724.293472
0.085000    723.656708
0.086000    723.340469
0.087000    726.361084
0.088000    724.768814
0.089000    725.247147
0.090000    724.927429
0.091000    726.200813
0.092000    726.676842
0.093000    725.087364
0.094000    726.358788
0.095000    726.836098
0.096000    727.629700
0.097000    727.471893
0.098000    727.472069
0.099000    726.677322
0.100000    727.470909
0.101000    726.996696
0.102000    727.789108
0.103000    727.950218
0.104000    727.470230
0.105000    728.108177
0.106000    727.948067
0.107000    728.743782
0.108000    728.584694
0.109000    728.743629
0.110000    728.108192
0.111000    727.787971
0.112000    727.948242
0.113000    728.903091
0.114000    728.107338
0.115000    729.697296
0.116000    728.903419
0.117000    727.947731
0.118000    728.427208
0.119000    726.993233
0.120000    728.584023
0.121000    728.745453
0.122000    728.742134
0.123000    728.427071
0.124000    728.585686
0.125000    728.109184
0.126000    727.632668
0.127000    729.222298
0.128000    728.585167
0.129000    727.631180
0.130000    727.632835
0.131000    728.267784
0.132000    728.904579
0.133000    728.110641
0.134000    728.428886
0.135000    729.062836
0.136000    728.428879
0.137000    728.428230
0.138000    727.474045
0.139000    728.747093
0.140000    727.314445
0.141000    726.676003
0.142000    727.157166
0.143000    727.315582
0.144000    727.315582
0.145000    726.838081
0.146000    726.521027
0.147000    726.519859
0.148000    726.360435
0.149000    726.520699
0.150000    726.521027
0.151000    725.724800
0.152000    726.520058
0.153000    726.361427
0.154000    725.884262
0.155000    725.567352
0.156000    726.521034
0.157000    726.362236
0.158000    724.929932
0.159000    725.090027
0.160000    724.294487
0.161000    725.090195
0.162000    725.406929
0.163000    724.931084
0.164000    725.725792
0.165000    725.407097
0.166000    724.931587
0.167000    723.341286
0.168000    725.885071
0.169000    725.249130
0.170000    725.089012
0.171000    724.296440
0.172000    724.614830
0.173000    723.977051
0.174000    724.295448
0.175000    725.089531
0.176000    725.090858
0.177000    723.657181
0.178000    723.978569
0.179000    724.615013
0.180000    724.770966
0.181000    723.818787
0.182000    724.296616
0.183000    724.136848
0.184000    724.137344
0.185000    725.568680
0.186000    724.771790
0.187000    723.658165
0.188000    723.817619
0.189000    723.659172
0.190000    724.613838
0.191000    724.613518
0.192000    723.976921
0.193000    725.407738
0.194000    723.819450
0.195000    724.771957
0.196000    724.456535
0.197000    723.977722
0.198000    724.294624
0.199000    725.409233
0.200000    725.886253
0.201000    724.137337
0.202000    724.294807
0.203000    723.819954
0.204000    725.250450
0.205000    723.819435
0.206000    725.252129
0.207000    723.184502
0.208000    724.296112
0.209000    725.250130
0.210000    723.817139
0.211000    724.295799
0.212000    724.932236
0.213000    724.295624
0.214000    723.658501
0.215000    723.819122
0.216000    723.500389
0.217000    723.501228
0.218000    723.660355
0.219000    724.615822
0.220000    724.138985
0.221000    724.137848
0.222000    723.342262
0.223000    723.819275
0.224000    723.820770
0.225000    723.980034
0.226000    723.978233
0.227000    723.501884
0.228000    723.502716
0.229000    722.865929
0.230000    723.659836
0.231000    722.548195
0.232000    723.343117
0.233000    723.025703
0.234000    723.026695
0.235000    722.706169
0.236000    721.911919
0.237000    723.979568
0.238000    723.024048
0.239000    722.707314
0.240000    721.595695
0.241000    723.343269
0.242000    723.341621
0.243000    722.072372
0.244000    722.707657
0.245000    722.388931
0.246000    721.752632
0.247000    722.389595
0.248000    721.593864
0.249000    722.389267
0.250000    722.705818
0.251000    723.499718
0.252000    722.706154
0.253000    723.026039
0.254000    722.866096
0.255000    722.548531
0.256000    722.072533
0.257000    723.023056
0.258000    723.024208
0.259000    722.229317
0.260000    723.183479
0.261000    723.343452
0.262000    722.705666
0.263000    723.819946
0.264000    723.977905
0.265000    723.183655
0.266000    723.819427
0.267000    724.137840
0.268000    723.820435
0.269000    722.707314
0.270000    723.342285
0.271000    723.182999
0.272000    723.501717
0.273000    724.297935
0.274000    724.931915
0.275000    724.613029
0.276000    725.727959
0.277000    727.158287
0.278000    724.296440
0.279000    724.614510
0.280000    727.158806
0.281000    726.206261
0.282000    724.773277
0.283000    726.680984
0.284000    726.046516
0.285000    726.523827
0.286000    727.476852
0.287000    724.933571
0.288000    726.840240
0.289000    726.681145
0.290000    726.840263
0.291000    725.888222
0.292000    726.840569
0.293000    728.113312
0.294000    727.475700
0.295000    726.682129
0.296000    726.683281
0.297000    727.636459
0.298000    728.110970
0.299000    727.318756
0.300000    727.477364
0.301000    727.000999
0.302000    728.272903
0.303000    726.682289
0.304000    727.795570
0.305000    727.479668
0.306000    728.748589
0.307000    726.842560
0.308000    726.524361
0.309000    727.794754
0.310000    727.635330
0.311000    727.001846
0.312000    726.843719
0.313000    727.956528
0.314000    727.638298
0.315000    727.001686
0.316000    727.001686
0.317000    726.842056
0.318000    727.002014
0.319000    726.523193
0.320000    727.479340
0.321000    726.206787
0.322000    726.364243
0.323000    728.273422
0.324000    726.047005
0.325000    726.365074
0.326000    726.207108
0.327000    726.525177
0.328000    725.412888
0.329000    726.526337
0.330000    724.775124
0.331000    726.048141
0.332000    725.891541
0.333000    724.936195
0.334000    725.252777
0.335000    725.413223
0.336000    725.095490
0.337000    724.776604
0.338000    723.825073
0.339000    724.617828
0.340000    725.414368
0.341000    723.187141
0.342000    723.664948
0.343000    723.505859
0.344000    724.777420
0.345000    722.074348
0.346000    724.142784
0.347000    723.505676
0.348000    723.348373
0.349000    724.140663
0.350000    724.298752
0.351000    723.980850
0.352000    724.620117
0.353000    724.618301
0.354000    724.460205
0.355000    723.029182
0.356000    722.869247
0.357000    722.871048
0.358000    723.187286
0.359000    722.392906
0.360000    722.870552
0.361000    723.346756
0.362000    722.235275
0.363000    721.759422
0.364000    722.395554
0.365000    721.439240
0.366000    722.234772
0.367000    722.868568
0.368000    722.868744
0.369000    721.915565
0.370000    721.918373
0.371000    722.075356
0.372000    723.506989
0.373000    723.505539
0.374000    721.757271
0.375000    723.984856
0.376000    722.392723
0.377000    722.551346
0.378000    722.234947
0.379000    723.506836
0.380000    723.029167
0.381000    722.711617
0.382000    723.029350
0.383000    723.982864
0.384000    723.983498
0.385000    722.870399
0.386000    723.663811
0.387000    723.347404
0.388000    723.346581
0.389000    722.713593
0.390000    723.506508
0.391000    722.550690
0.392000    722.870392
0.393000    723.665634
0.394000    723.665642
0.395000    724.142128
0.396000    723.028015
0.397000    723.504539
0.398000    723.029678
0.399000    723.186966
0.400000    724.142319
0.401000    723.982208
0.402000    723.027847
0.403000    724.140976
0.404000    722.550697
0.405000    722.870247
0.406000    723.982697
0.407000    724.300751
0.408000    723.507851
0.409000    723.666298
0.410000    723.825089
0.411000    723.188141
0.412000    724.461029
0.413000    723.981537
0.414000    724.620300
0.415000    724.618958
0.416000    724.618973
0.417000    722.870560
0.418000    723.982376
0.419000    723.507683
0.420000    722.712135
0.421000    723.984024
0.422000    723.346558
0.423000    722.870087
0.424000    723.983856
0.425000    724.301910
0.426000    722.870911
0.427000    723.822601
0.428000    722.869583
0.429000    723.506851
0.430000    723.664474
0.431000    724.300766
0.432000    724.619141
0.433000    722.550522
0.434000    722.869415
0.435000    722.711807
0.436000    723.347412
0.437000    723.346573
0.438000    724.460693
0.439000    723.981689
0.440000    723.187637
0.441000    722.235123
0.442000    724.299927
0.443000    723.822754
0.444000    723.823914
0.445000    723.826920
0.446000    724.301407
0.447000    724.141800
0.448000    722.552185
0.449000    723.507187
0.450000    723.504364
0.451000    724.620300
0.452000    723.505188
0.453000    723.981216
0.454000    724.301590
0.455000    724.777420
0.456000    723.982193
0.457000    724.143616
0.458000    723.980698
0.459000    723.984344
0.460000    725.096146
0.461000    724.938690
0.462000    725.572479
0.463000    724.140152
0.464000    723.982697
0.465000    724.935364
0.466000    724.618332
0.467000    724.458878
0.468000    724.936203
0.469000    723.664307
0.470000    723.505539
0.471000    725.253937
0.472000    724.458221
0.473000    723.983215
0.474000    724.617981
0.475000    724.777100
0.476000    725.412552
0.477000    724.776093
0.478000    724.934235
0.479000    724.936203
0.480000    726.207260
0.481000    723.983353
0.482000    725.253250
0.483000    726.208939
0.484000    725.571991
0.485000    726.207108
0.486000    724.459045
0.487000    725.093826
0.488000    725.413727
0.489000    726.525681
0.490000    726.368546
0.491000    726.046997
0.492000    725.889038
0.493000    726.207794
0.494000    727.161453
0.495000    726.364563
0.496000    726.525009
0.497000    727.161148
0.498000    726.843048
0.499000    726.524841
0.500000    726.683960
0.501000    726.684448
0.502000    727.797577
0.503000    726.843567
0.504000    725.889221
0.505000    727.957504
0.506000    727.956696
0.507000    727.001526
0.508000    727.798233
0.509000    726.525330
0.510000    727.638138
0.511000    727.479675
0.512000    728.116791
0.513000    726.526810
0.514000    726.684799
0.515000    727.480347
0.516000    726.366226
0.517000    726.526184
0.518000    726.844391
0.519000    726.526169
0.520000    725.255264
0.521000    726.686279
0.522000    727.004013
0.523000    726.050659
0.524000    726.527496
0.525000    725.095001
0.526000    726.049164
0.527000    724.778763
0.528000    725.414383
0.529000    725.414032
0.530000    724.936707
0.531000    725.573807
0.532000    724.939011
0.533000    724.300079
0.534000    723.826080
0.535000    725.414047
0.536000    724.460861
0.537000    724.302246
0.538000    723.506691
0.539000    723.825241
0.540000    724.618820
0.541000    723.983688
0.542000    723.984207
0.543000    723.346092
0.544000    725.096634
0.545000    724.142624
0.546000    723.665138
0.547000    723.347565
0.548000    722.711624
0.549000    723.506371
0.550000    722.392563
0.551000    721.756966
0.552000    723.189964
0.553000    722.551025
0.554000    723.029854
0.555000    723.824265
0.556000    723.665985
0.557000    723.505699
0.558000    722.393074
0.559000    723.824074
0.560000    723.346092
0.561000    724.460037
0.562000    724.616829
0.563000    722.869072
0.564000    724.301750
0.565000    723.665634
0.566000    723.984016
0.567000    724.777267
0.568000    724.778595
0.569000    724.618645
0.570000    724.776283
0.571000    725.256264
0.572000    726.210434
0.573000    725.253281
0.574000    725.254440
0.575000    725.571831
0.576000    725.414375
0.577000    725.731773
0.578000    726.049820
0.579000    726.049156
0.580000    726.367378
0.581000    725.889885
0.582000    727.163445
0.583000    726.684937
0.584000    726.367233
0.585000    725.096138
0.586000    727.638626
0.587000    725.733261
0.588000    726.526352
0.589000    727.004021
0.590000    726.526337
0.591000    725.891373
0.592000    726.684952
0.593000    726.210617
0.594000    727.799210
0.595000    727.164276
0.596000    725.892380
0.597000    726.687439
0.598000    725.571487
0.599000    726.209763
0.600000    725.890884
0.601000    726.527664
0.602000    724.938377
0.603000    725.256416
0.604000    726.367218
0.605000    725.415039
0.606000    724.938370
0.607000    725.415024
0.608000    725.573830
0.609000    725.415863
0.610000    725.255096
0.611000    725.415192
0.612000    723.825233
0.613000    724.141464
0.614000    723.666794
0.615000    724.779587
0.616000    724.300751
0.617000    723.824905
0.618000    723.666306
0.619000    724.461365
0.620000    723.348579
0.621000    722.235603
0.622000    724.302078
0.623000    724.142944
0.624000    723.350891
0.625000    724.143967
0.626000    722.554810
0.627000    723.826233
0.628000    722.713608
0.629000    722.714279
0.630000    723.668106
0.631000    723.032173
0.632000    723.985672
0.633000    723.985352
0.634000    724.143799
0.635000    722.872375
0.636000    723.032005
0.637000    723.510178
0.638000    723.508194
0.639000    722.713615
0.640000    723.987183
0.641000    724.621124
0.642000    723.825737
0.643000    723.509171
0.644000    722.236786
0.645000    725.255096
0.646000    723.189796
0.647000    724.302429
0.648000    723.985527
0.649000    724.144958
0.650000    724.459869
0.651000    724.303574
0.652000    724.302734
0.653000    724.781403
0.654000    725.417038
0.655000    725.256424
0.656000    723.987656
0.657000    725.575974
0.658000    725.892197
0.659000    725.256760
0.660000    726.528152
0.661000    725.893860
0.662000    727.325195
0.663000    725.418350
0.664000    726.052460
0.665000    726.370529
0.666000    726.210922
0.667000    727.641281
0.668000    727.007477
0.669000    724.938354
0.670000    726.053619
0.671000    726.209274
0.672000    726.688919
0.673000    727.004501
0.674000    727.004501
0.675000    726.369370
0.676000    727.801224
0.677000    726.848206
0.678000    726.369858
0.679000    727.165268
0.680000    726.846039
0.681000    726.689255
0.682000    726.528137
0.683000    725.575302
0.684000    726.210587
0.685000    727.803848
0.686000    726.847198
0.687000    727.642273
0.688000    727.482666
0.689000    727.166260
0.690000    726.688095
0.691000    726.371033
0.692000    726.052307
0.693000    727.166077
0.694000    726.688080
0.695000    726.530304
0.696000    726.528320
0.697000    725.735260
0.698000    726.209259
0.699000    725.732422
0.700000    724.621140
0.701000    726.368378
0.702000    725.259415
0.703000    724.940338
0.704000    725.417679
0.705000    725.257751
0.706000    725.736252
0.707000    725.736725
0.708000    726.053467
0.709000    725.419022
0.710000    725.259064
0.711000    724.622772
0.712000    724.782578
0.713000    724.939026
0.714000    724.940338
0.715000    724.304413
0.716000    725.257416
0.717000    724.782394
0.718000    725.893860
0.719000    724.304092
0.720000    724.302429
0.721000    725.894516
0.722000    724.144791
0.723000    724.784378
0.724000    724.941666
0.725000    724.463669
0.726000    724.621780
0.727000    724.304398
0.728000    724.303574
0.729000    725.577454
0.730000    725.260895
0.731000    724.463821
0.732000    725.257584
0.733000    724.463028
0.734000    726.052963
0.735000    726.373016
0.736000    725.735580
0.737000    726.528976
0.738000    726.529465
0.739000    726.690399
0.740000    727.166428
0.741000    727.004990
0.742000    728.117264
0.743000    727.005478
0.744000    728.596939
0.745000    729.231735
0.746000    728.597595
0.747000    728.596771
0.748000    729.866989
0.749000    728.756866
0.750000    728.598251
0.751000    729.551743
0.752000    729.708893
0.753000    728.913651
0.754000    730.344177
0.755000    729.868164
0.756000    729.710861
0.757000    730.185730
0.758000    730.503952
0.759000    731.298691
0.760000    731.140228
0.761000    731.777344
0.762000    731.300674
0.763000    731.458298
0.764000    730.821701
0.765000    731.458130
0.766000    731.457962
0.767000    730.981628
0.768000    730.345337
0.769000    730.663742
0.770000    729.867981
0.771000    730.662231
0.772000    730.823318
0.773000    731.457809
0.774000    729.234360
0.775000    729.710037
0.776000    728.915329
0.777000    728.597427
0.778000    728.596756
0.779000    728.598267
0.780000    727.803192
0.781000    727.803024
0.782000    727.486618
0.783000    726.689255
0.784000    727.007950
0.785000    726.849350
0.786000    726.372833
0.787000    726.530624
0.788000    725.577957
0.789000    725.579300
0.790000    726.215073
0.791000    725.101944
0.792000    724.624435
0.793000    724.624619
0.794000    724.148102
0.795000    724.307037
0.796000    723.192932
0.797000    724.465988
0.798000    724.307526
0.799000    723.512650
0.800000    723.195084
0.801000    723.829224
0.802000    724.465988
0.803000    723.351883
0.804000    722.876373
0.805000    723.034485
0.806000    723.990295
0.807000    723.194412
0.808000    721.763062
0.809000    724.147934
0.810000    721.604950
0.811000    723.831863
0.812000    721.447327
0.813000    722.242233
0.814000    722.715591
0.815000    722.716766
0.816000    723.192917
0.817000    722.558792
0.818000    721.921036
0.819000    722.399857
0.820000    722.400696
0.821000    723.194244
0.822000    723.037949
0.823000    722.715439
0.824000    722.557632
0.825000    723.352188
0.826000    724.466324
0.827000    723.671906
0.828000    722.237579
0.829000    722.875687
0.830000    723.351883
0.831000    723.509995
0.832000    723.829041
0.833000    723.351212
0.834000    723.350037
0.835000    722.079483
0.836000    723.192764
0.837000    722.396530
0.838000    722.714111
0.839000    723.666946
0.840000    724.305069
0.841000    724.623596
0.842000    723.827225
0.843000    723.828217
0.844000    723.509140
0.845000    723.192093
0.846000    724.143280
0.847000    724.621643
0.848000    723.828049
0.849000    723.828232
0.850000    723.987488
0.851000    723.667603
0.852000    724.779068
0.853000    723.668289
0.854000    724.304382
0.855000    723.985825
0.856000    724.144608
0.857000    723.507004
0.858000    723.348740
0.859000    723.667297
0.860000    724.303589
0.861000    723.507996
0.862000    723.508148
0.863000    724.144775
0.864000    723.984009
0.865000    724.459717
0.866000    726.051804
0.867000    726.052643
0.868000    724.621307
0.869000    725.096649
0.870000    725.097321
0.871000    726.051468
0.872000    725.573990
0.873000    725.894028
0.874000    724.941666
0.875000    726.688934
0.876000    726.686768
0.877000    726.528152
0.878000    724.940826
0.879000    726.528305
0.880000    726.211594
0.881000    726.052643
0.882000    726.211090
0.883000    726.053299
0.884000    725.257736
0.885000    725.895187
0.886000    726.054306
0.887000    725.417007
0.888000    726.846878
0.889000    725.895691
0.890000    726.531296
0.891000    727.324707
0.892000    727.325363
0.893000    726.688416
0.894000    726.372040
0.895000    725.578293
0.896000    726.212067
0.897000    725.894196
0.898000    725.894043
0.899000    725.257904
0.900000    725.418350
0.901000    726.372543
0.902000    725.098450
0.903000    725.894211
0.904000    724.940521
0.905000    725.417206
0.906000    726.214417
0.907000    724.621780
0.908000    725.895035
0.909000    726.212753
0.910000    726.530472
0.911000    725.417831
0.912000    726.212570
0.913000    725.896179
0.914000    726.213074
0.915000    724.147110
0.916000    725.577469
0.917000    725.099625
0.918000    724.625595
0.919000    725.894363
0.920000    725.259247
0.921000    723.351730
0.922000    723.985352
0.923000    723.828873
0.924000    724.303406
0.925000    724.782913
0.926000    725.418503
0.927000    725.258224
0.928000    724.623764
0.929000    723.350723
0.930000    724.145798
0.931000    724.941986
0.932000    724.940506
0.933000    726.053146
0.934000    725.419006
0.935000    724.623611
0.936000    724.463684
0.937000    724.781906
0.938000    726.054626
0.939000    723.827576
0.940000    725.098465
0.941000    725.577469
0.942000    724.939697
0.943000    725.258560
0.944000    725.894043
0.945000    723.667770
0.946000    725.417679
0.947000    725.733932
0.948000    725.575790
0.949000    726.212234
0.950000    725.576309
0.951000    725.577606
0.952000    726.211411
0.953000    726.372360
0.954000    725.894012
0.955000    725.575638
0.956000    727.006500
0.957000    726.212067
0.958000    726.211426
0.959000    727.006302
0.960000    727.480835
0.961000    727.165771
0.962000    726.689087
0.963000    725.894028
0.964000    725.098480
0.965000    726.687775
0.966000    726.370529
0.967000    726.688416
0.968000    725.258408
0.969000    726.688095
0.970000    725.892044
0.971000    727.959839
0.972000    726.528503
0.973000    725.414886
0.974000    726.210938
0.975000    726.528641
0.976000    726.687119
0.977000    726.369232
0.978000    726.368546
0.979000    724.619644
0.980000    725.097794
0.981000    725.732910
0.982000    725.733597
0.983000    725.256760
0.984000    725.575150
0.985000    724.304054
0.986000    724.462852
0.987000    723.984871
0.988000    723.666969
0.989000    724.620819
0.990000    725.100311
0.991000    723.507164
0.992000    723.030838
0.993000    722.712631
0.994000    723.189125
0.995000    723.667618
0.996000    723.985504
0.997000    723.348404
0.998000    723.508659
0.999000    723.348404
1.000000    722.236626
1.001000    723.032509
1.002000    722.872887
1.003000    722.394073
1.004000    722.234787
1.005000    721.918556
1.006000    722.396545
1.007000    723.188789
1.008000    723.189949
1.009000    723.032173
1.010000    724.304390
1.011000    723.825890
1.012000    724.462509
1.013000    723.824760
1.014000    723.189781
1.015000    723.826736
1.016000    724.304237
1.017000    723.509331
1.018000    725.099281
1.019000    723.030998
1.020000    724.303406
1.021000    723.030495
1.022000    723.825577
1.023000    724.303574
1.024000    723.667282
1.025000    724.143776
1.026000    724.939026
1.027000    726.051483
1.028000    724.939842
1.029000    725.258583
1.030000    725.256905
1.031000    724.779572
1.032000    725.894539
1.033000    726.527824
1.034000    724.302574
1.035000    724.462860
1.036000    726.052299
1.037000    724.779411
1.038000    725.257576
1.039000    725.891052
1.040000    725.574654
1.041000    726.053146
1.042000    725.893356
1.043000    727.322533
1.044000    724.461533
1.045000    727.006142
1.046000    726.210747
1.047000    727.322395
1.048000    725.893196
1.049000    727.322723
1.050000    726.051292
1.051000    726.527481
1.052000    726.209763
1.053000    726.686279
1.054000    725.733086
1.055000    726.686935
1.056000    725.256081
1.057000    726.209770
1.058000    724.778587
1.059000    725.572159
1.060000    723.345909
1.061000    725.571983
1.062000    724.938538
1.063000    725.254242
1.064000    724.302910
1.065000    725.097458
1.066000    724.779915
1.067000    725.255913
1.068000    725.412376
1.069000    725.891060
1.070000    725.414711
1.071000    725.893700
1.072000    726.210419
1.073000    725.256584
1.074000    726.209938
1.075000    726.529289
1.076000    726.211266
1.077000    724.778259
1.078000    727.003983
1.079000    725.415344
1.080000    725.891029
1.081000    725.254601
1.082000    727.166252
1.083000    727.163765
1.084000    726.051964
1.085000    727.801865
1.086000    726.687759
1.087000    727.325012
1.088000    726.053307
1.089000    727.167732
1.090000    726.369545
1.091000    726.687424
1.092000    725.892700
1.093000    726.529152
1.094000    726.529488
1.095000    727.323204
1.096000    727.485954
1.097000    726.053955
1.098000    726.691216
1.099000    726.214218
1.100000    726.531303
1.101000    725.735748
1.102000    726.849342
1.103000    725.261040
1.104000    726.372856
1.105000    725.735558
1.106000    725.419006
1.107000    726.849670
1.108000    725.736244
1.109000    726.691246
1.110000    727.327034
1.111000    727.168739
1.112000    726.215736
1.113000    726.214073
1.114000    728.119438
1.115000    726.373344
1.116000    725.738716
1.117000    726.056282
1.118000    726.693062
1.119000    725.578621
1.120000    726.214394
1.121000    726.054802
1.122000    726.374352
1.123000    725.101952
1.124000    724.306389
1.125000    725.580109
1.126000    724.943001
1.127000    725.578606
1.128000    725.418694
1.129000    726.056953
1.130000    725.100609
1.131000    725.261055
1.132000    725.736389
1.133000    726.054955
1.134000    725.578445
1.135000    726.057098
1.136000    725.579117
1.137000    725.895996
1.138000    725.418175
1.139000    724.941673
1.140000    725.580116
1.141000    725.259575
1.142000    724.782051
1.143000    724.942009
1.144000    726.214256
1.145000    724.782074
1.146000    725.259895
1.147000    725.577454
1.148000    724.940857
1.149000    724.942024
1.150000    725.576645
1.151000    725.099632
1.152000    725.416702
1.153000    726.211594
1.154000    726.052658
1.155000    725.100609
1.156000    724.624779
1.157000    724.942505
1.158000    724.942001
1.159000    724.622459
1.160000    724.464348
1.161000    725.417679
1.162000    724.940529
1.163000    724.623466
1.164000    724.784897
1.165000    724.305397
1.166000    723.512314
1.167000    724.465675
1.168000    724.783386
1.169000    724.148445
1.170000    723.672585
1.171000    723.512642
1.172000    723.355515
1.173000    721.924019
1.174000    721.607117
1.175000    721.767372
1.176000    721.926147
1.177000    721.768700
1.178000    721.766380
1.179000    721.291862
1.180000    720.974480
1.181000    720.495819
1.182000    720.180893
1.183000    719.703735
1.184000    718.115265
1.185000    719.070404
1.186000    718.591743
1.187000    718.594223
1.188000    717.958092
1.189000    716.845993
1.190000    717.798813
1.191000    715.733177
1.192000    715.575905
1.193000    717.007759
1.194000    713.985619
1.195000    714.783165
1.196000    713.351662
1.197000    712.716682
1.198000    713.511078
1.199000    711.285851
1.200000    711.286171
1.201000    709.697197
1.202000    708.903297
1.203000    708.583916
1.204000    708.585411
1.205000    706.836487
1.206000    706.200554
1.207000    705.564095
1.208000    704.769188
1.209000    704.453300
1.210000    702.702248
1.211000    701.909172
1.212000    701.431015
1.213000    700.159767
1.214000    699.682755
1.215000    698.250420
1.216000    698.091499
1.217000    696.661476
1.218000    696.659805
1.219000    694.116341
1.220000    693.956245
1.221000    693.638008
1.222000    691.251343
1.223000    690.455978
1.224000    690.454124
1.225000    688.546638
1.226000    686.953682
1.227000    685.999184
1.228000    684.407738
1.229000    684.407234
1.230000    682.499062
1.231000    681.384460
1.232000    680.111732
1.233000    678.677895
1.234000    678.199249
1.235000    677.244255
1.236000    675.177139
1.237000    672.948235
1.238000    672.471573
1.239000    670.243195
1.240000    669.604088
1.241000    668.966324
1.242000    667.057808
1.243000    666.103470
1.244000    664.191307
1.245000    663.397591
1.246000    663.395096
1.247000    659.102074
1.248000    657.827171
1.249000    655.920174
1.250000    654.327408
1.251000    653.054344
1.252000    651.146645
1.253000    649.715134
1.254000    648.123695
1.255000    645.897964
1.256000    645.100899
1.257000    642.238548
1.258000    639.854530
1.259000    637.784744
1.260000    635.400558
1.261000    632.380272
1.262000    630.155685
1.263000    627.610718
1.264000    623.320175
1.265000    620.933479
1.266000    618.549301
1.267000    616.164291
1.268000    612.350899
1.269000    608.852432
1.270000    605.354942
1.271000    600.586212
1.272000    598.043755
1.273000    593.750877
1.274000    590.094772
1.275000    584.851051
1.276000    579.445717
1.277000    576.265320
1.278000    570.385307
1.279000    564.979973
1.280000    561.166580
1.281000    555.444023
1.282000    550.198143
1.283000    544.475578
1.284000    537.640419
1.285000    532.237076
1.286000    526.036507
1.287000    520.155991
1.288000    513.799969
1.289000    507.760021
1.290000    501.240929
1.291000    494.722969
1.292000    487.410290
1.293000    479.939819
1.294000    473.742252
1.295000    465.952072
1.296000    457.048267
1.297000    448.942692
1.298000    441.314426
1.299000    434.955917
1.300000    426.210743
1.301000    420.330074
1.302000    412.064541
1.303000    404.592262
1.304000    396.484684
1.305000    390.287598
1.306000    380.746536
1.307000    373.117950
1.308000    365.168823
1.309000    356.267029
1.310000    349.906357
1.311000    340.686508
1.312000    333.531792
1.313000    325.740776
1.314000    316.679359
1.315000    309.525955
1.316000    301.735296
1.317000    296.012907
1.318000    287.267889
1.319000    280.112007
1.320000    272.481110
1.321000    265.802896
1.322000    257.378260
1.323000    250.857500
1.324000    245.135941
1.325000    239.411228
1.326000    233.050253
1.327000    225.421339
1.328000    220.015181
1.329000    214.609364
1.330000    209.522594
1.331000    203.001011
1.332000    199.026200
1.333000    193.144043
1.334000    189.012273
1.335000    184.399362
1.336000    179.947058
1.337000    174.065718
1.338000    168.978455
1.339000    165.482632
1.340000    160.870549
1.341000    157.370429
1.342000    152.439950
1.343000    149.102917
1.344000    146.082277
1.345000    142.426024
1.346000    138.292105
1.347000    135.907917
1.348000    131.454777
1.349000    127.798019
1.350000    124.936992
1.351000    121.121129
1.352000    117.624480
1.353000    115.397910
1.354000    111.105045
1.355000    109.197857
1.356000    106.495111
1.357000    105.381654
1.358000    103.634737
1.359000    101.725889
1.360000    101.410315
1.361000    99.342193
1.362000    98.390668
1.363000    96.163437
1.364000    94.733087
1.365000    93.302237
1.366000    90.917388
1.367000    90.282596
1.368000    87.896910
1.369000    87.419243
1.370000    86.306953
1.371000    84.718147
1.372000    84.081704
1.373000    81.536410
1.374000    80.424283
1.375000    79.310831
1.376000    79.309835
1.377000    77.878160
1.378000    77.560767
1.379000    75.969147
1.380000    75.173590
1.381000    72.785426
1.382000    73.263748
1.383000    73.420709
1.384000    71.986883
1.385000    68.962430
1.386000    67.528939
1.387000    67.846994
1.388000    67.529264
1.389000    66.570622
1.390000    64.822878
1.391000    63.550642
1.392000    63.866382
1.393000    63.230269
1.394000    64.342724
1.395000    61.955217
1.396000    61.637164
1.397000    61.635837
1.398000    60.362447
1.399000    61.315621
1.400000    59.725996
1.401000    58.770829
1.402000    60.041573
1.403000    60.041409
1.404000    58.928615
1.405000    61.472087
1.406000    59.245850
1.407000    59.565065
1.408000    59.723019
1.409000    59.725334
1.410000    59.884613
1.411000    60.679345
1.412000    58.929445
1.413000    59.884448
1.414000    60.519404
1.415000    59.882461
1.416000    60.995248
1.417000    60.996406
1.418000    60.043560
1.419000    59.723187
1.420000    60.996905
1.421000    60.995746
1.422000    61.316620
1.423000    62.269137
1.424000    63.383912
1.425000    61.159498
1.426000    63.225797
1.427000    64.181126
1.428000    63.385071
1.429000    64.022181
1.430000    65.453686
1.431000    64.659454
1.432000    65.612136
1.433000    65.136952
1.434000    66.408855
1.435000    67.520979
1.436000    69.431313
1.437000    68.157927
1.438000    70.544929
1.439000    70.387143
1.440000    71.499435
1.441000    71.341813
1.442000    72.933756
1.443000    74.046543
1.444000    75.476562
1.445000    76.593162
1.446000    77.706113
1.447000    78.500844
1.448000    80.092291
1.449000    80.889171
1.450000    82.798843
1.451000    84.708847
1.452000    84.867959
1.453000    86.776967
1.454000    87.414242
1.455000    89.166290
1.456000    90.755418
1.457000    92.188252
1.458000    94.890834
1.459000    96.641720
1.460000    97.279001
1.461000    100.937737
1.462000    100.939065
1.463000    103.485349
1.464000    106.507311
1.465000    108.577252
1.466000    108.731894
1.467000    111.117907
1.468000    113.026419
1.469000    115.728836
1.470000    119.545362
1.471000    120.978692
1.472000    122.883228
1.473000    125.109635
1.474000    128.607610
1.475000    130.833851
1.476000    133.537424
1.477000    136.398623
1.478000    141.010045
1.479000    143.554505
1.480000    147.527501
1.481000    149.118119
1.482000    152.932661
1.483000    155.952143
1.484000    162.789972
1.485000    165.332949
1.486000    168.514355
1.487000    171.851059
1.488000    175.665768
1.489000    179.640585
1.490000    188.700022
1.491000    195.376255
1.492000    201.414722
1.493000    203.799902
1.494000    209.364010
1.495000    215.721363
1.496000    224.459595
1.497000    234.631157
1.498000    244.329853
1.499000    247.345192
1.500000    251.475807
1.501000    261.012569
1.502000    269.912571
1.503000    277.859707
1.504000    285.804855
1.505000    289.937302
1.506000    298.677673
1.507000    306.306431
1.508000    313.617287
1.509000    320.610413
1.510000    324.743839
1.511000    333.324615
1.512000    341.433678
1.513000    347.315342
1.514000    353.036903
1.515000    358.600189
1.516000    364.163963
1.517000    371.319679
1.518000    376.087387
1.519000    381.493217
1.520000    385.151451
1.521000    390.876495
1.522000    397.554550
1.523000    401.848076
1.524000    406.459328
1.525000    412.662865
1.526000    417.911552
1.527000    422.524307
1.528000    427.613556
1.529000    430.793465
1.530000    435.408691
1.531000    441.929291
1.532000    447.654655
1.533000    451.791878
1.534000    457.518257
1.535000    461.176811
1.536000    467.219246
1.537000    474.216843
1.538000    480.899872
1.539000    487.417816
1.540000    493.302284
1.541000    501.251404
1.542000    509.838470
1.543000    519.222092
1.544000    526.057426
1.545000    536.074509
1.546000    545.615562
1.547000    556.108665
1.548000    568.669197
1.549000    585.524612
1.550000    602.217087
1.551000    618.750633
1.552000    630.673737
1.553000    644.346252
1.554000    662.310287
1.555000    682.658203
1.556000    699.506836
1.557000    714.609192
1.558000    730.823502
1.559000    749.420700
1.560000    766.427444
1.561000    783.593628
1.562000    801.075867
1.563000    819.036774
1.564000    836.995880
1.565000    854.638214
1.566000    871.165665
1.567000    889.759552
1.568000    907.558884
1.569000    926.152100
1.570000    943.633850
1.571000    961.111984
1.572000    979.546890
1.573000    995.913559
1.574000    1010.056961
1.575000    1025.947113
1.576000    1040.727951
1.577000    1055.348022
1.578000    1068.220490
1.579000    1080.777893
1.580000    1095.398972
1.581000    1103.980911
1.582000    1115.425018
1.583000    1127.506256
1.584000    1136.882919
1.585000    1146.422302
1.586000    1154.849304
1.587000    1164.710373
1.588000    1172.976578
1.589000    1180.771072
1.590000    1189.200699
1.591000    1197.472168
1.592000    1204.313293
1.593000    1212.900665
1.594000    1221.015686
1.595000    1229.128052
1.596000    1237.082672
1.597000    1245.195190
1.598000    1255.850708
1.599000    1265.553528
1.600000    1274.939941
1.601000    1286.707733
1.602000    1298.952881
1.603000    1311.836639
1.604000    1323.921814
1.605000    1339.823212
1.606000    1353.021515
1.607000    1370.033844
1.608000    1385.935272
1.609000    1401.037598
1.610000    1418.370178
1.611000    1434.904388
1.612000    1451.755951
1.613000    1470.200012
1.614000    1487.053101
1.615000    1505.335999
1.616000    1522.503510
1.617000    1539.357941
1.618000    1555.889313
1.619000    1574.648071
1.620000    1590.704498
1.621000    1608.352905
1.622000    1624.088928
1.623000    1640.464325
1.624000    1657.151886
1.625000    1672.731415
1.626000    1689.103790
1.627000    1706.273132
1.628000    1720.580444
1.629000    1736.636322
1.630000    1750.623932
1.631000    1765.565979
1.632000    1780.825317
1.633000    1795.293762
1.634000    1807.373444
1.635000    1821.680267
1.636000    1834.236481
1.637000    1846.000702
1.638000    1858.878601
1.639000    1869.849365
1.640000    1883.681305
1.641000    1892.742065
1.642000    1903.076874
1.643000    1914.683258
1.644000    1923.270508
1.645000    1932.969482
1.646000    1943.306244
1.647000    1952.050812
1.648000    1961.113708
1.649000    1970.023132
1.650000    1980.201141
1.651000    1988.470306
1.652000    1998.488525
1.653000    2007.557220
1.654000    2015.510468
1.655000    2024.418732
1.656000    2032.052765
1.657000    2040.324738
1.658000    2047.961609
1.659000    2057.028442
1.660000    2064.822144
1.661000    2072.777863
1.662000    2082.323395
1.663000    2088.052551
1.664000    2096.798889
1.665000    2105.232452
1.666000    2111.598358
1.667000    2118.756805
1.668000    2125.914948
1.669000    2132.597412
1.670000    2138.168152
1.671000    2143.896149
1.672000    2148.827454
1.673000    2154.079620
1.674000    2157.740662
1.675000    2162.194305
1.676000    2165.381165
1.677000    2168.247192
1.678000    2172.224792
1.679000    2176.204437
1.680000    2178.748840
1.681000    2180.344086
1.682000    2186.230072
1.683000    2187.030640
1.684000    2190.052917
1.685000    2192.441101
1.686000    2195.623566
1.687000    2198.487457
1.688000    2200.399109
1.689000    2202.470520
1.690000    2204.220428
1.691000    2207.083954
1.692000    2207.724243
1.693000    2209.474609
1.694000    2210.270325
1.695000    2210.752106
1.696000    2212.820953
1.697000    2212.820251
1.698000    2212.824585
1.699000    2213.463013
1.700000    2215.375122
1.701000    2215.057922
1.702000    2212.993927
1.703000    2212.041748
1.704000    2212.524902
1.705000    2211.731995
1.706000    2208.554749
1.707000    2208.555206
1.708000    2207.444458
1.709000    2205.539886
1.710000    2203.474091
1.711000    2200.458221
1.712000    2198.392090
1.713000    2196.490753
1.714000    2192.676208
1.715000    2189.339447
1.716000    2185.368408
1.717000    2180.918152
1.718000    2176.630066
1.719000    2172.816193
1.720000    2166.620605
1.721000    2159.786407
1.722000    2154.383759
1.723000    2147.708801
1.724000    2141.513245
1.725000    2134.837830
1.726000    2127.210419
1.727000    2120.853058
1.728000    2113.384155
1.729000    2105.278320
1.730000    2097.967651
1.731000    2088.430908
1.732000    2080.008057
1.733000    2073.017456
1.734000    2062.684113
1.735000    2054.260468
1.736000    2045.199860
1.737000    2035.504974
1.738000    2026.444946
1.739000    2018.021881
1.740000    2008.800171
1.741000    1999.108337
1.742000    1990.523102
1.743000    1980.033295
1.744000    1970.177979
1.745000    1960.959473
1.746000    1951.421906
1.747000    1939.818817
1.748000    1932.028320
1.749000    1921.856873
1.750000    1912.793701
1.751000    1902.780426
1.752000    1890.857452
1.753000    1881.318054
1.754000    1869.874084
1.755000    1859.381897
1.756000    1848.253296
1.757000    1837.127960
1.758000    1826.156494
1.759000    1816.617889
1.760000    1804.855255
1.761000    1794.202698
1.762000    1782.757904
1.763000    1772.421661
1.764000    1760.498230
1.765000    1750.325897
1.766000    1741.104370
1.767000    1729.658752
1.768000    1719.167572
1.769000    1708.353485
1.770000    1697.227112
1.771000    1686.892975
1.772000    1675.446198
1.773000    1665.588226
1.774000    1657.479492
1.775000    1644.922729
1.776000    1634.588806
1.777000    1625.207977
1.778000    1615.351318
1.779000    1605.175659
1.780000    1593.092926
1.781000    1584.668274
1.782000    1575.129364
1.783000    1565.111145
1.784000    1554.459747
1.785000    1545.874237
1.786000    1536.015900
1.787000    1525.998138
1.788000    1516.302765
1.789000    1505.331009
1.790000    1496.743973
1.791000    1487.204529
1.792000    1479.891541
1.793000    1470.510925
1.794000    1462.082123
1.795000    1450.951920
1.796000    1443.320206
1.797000    1437.436722
1.798000    1427.740524
1.799000    1420.901520
1.800000    1412.633194
1.801000    1406.910446
1.802000    1399.118973
1.803000    1392.600525
1.804000    1385.125717
1.805000    1380.833038
1.806000    1373.996353
1.807000    1368.429459
1.808000    1363.184891
1.809000    1357.301239
1.810000    1353.005432
1.811000    1347.284348
1.812000    1342.989960
1.813000    1337.105484
1.814000    1332.813293
1.815000    1327.406494
1.816000    1322.000153
1.817000    1318.184448
1.818000    1312.462067
1.819000    1308.483765
1.820000    1302.921829
1.821000    1297.673630
1.822000    1295.924927
1.823000    1290.836304
1.824000    1286.860031
1.825000    1284.793076
1.826000    1279.865387
1.827000    1277.161316
1.828000    1273.505585
1.829000    1270.802673
1.830000    1268.255066
1.831000    1265.711090
1.832000    1262.692276
1.833000    1260.783432
1.834000    1259.352585
1.835000    1256.650192
1.836000    1256.011581
1.837000    1251.561432
1.838000    1249.812210
1.839000    1247.744919
1.840000    1246.152634
1.841000    1244.086182
1.842000    1242.498047
1.843000    1242.021042
1.844000    1238.999939
1.845000    1236.296692
1.846000    1235.818359
1.847000    1235.341003
1.848000    1233.753189
1.849000    1234.388351
1.850000    1232.479660
1.851000    1231.368027
1.852000    1232.481171
1.853000    1229.778412
1.854000    1232.163116
1.855000    1231.527466
1.856000    1231.209442
1.857000    1231.685135
1.858000    1234.547592
1.859000    1232.322876
1.860000    1233.753723
1.861000    1233.436493
1.862000    1234.868530
1.863000    1235.979797
1.864000    1237.251709
1.865000    1237.411804
1.866000    1239.001617
1.867000    1240.115723
1.868000    1241.067917
1.869000    1242.817627
1.870000    1244.089401
1.871000    1244.249008
1.872000    1247.112030
1.873000    1247.748444
1.874000    1249.813751
1.875000    1250.452194
1.876000    1251.725403
1.877000    1255.064774
1.878000    1256.652908
1.879000    1259.831848
1.880000    1262.218140
1.881000    1262.855270
1.882000    1265.397720
1.883000    1268.420349
1.884000    1270.965363
1.885000    1272.713287
1.886000    1276.055267
1.887000    1277.484482
1.888000    1282.096558
1.889000    1285.116348
1.890000    1288.774445
1.891000    1290.683411
1.892000    1294.339050
1.893000    1297.359360
1.894000    1301.653381
1.895000    1303.404617
1.896000    1308.332245
1.897000    1310.876541
1.898000    1315.331848
1.899000    1318.035233
1.900000    1321.214859
1.901000    1325.507385
1.902000    1330.119629
1.903000    1333.458862
1.904000    1335.208038
1.905000    1339.185669
1.906000    1344.272949
1.907000    1346.025009
1.908000    1349.206085
1.909000    1351.748245
1.910000    1356.043106
1.911000    1359.222855
1.912000    1361.929077
1.913000    1364.155319
1.914000    1367.177277
1.915000    1370.198730
1.916000    1374.493408
1.917000    1376.244492
1.918000    1379.901566
1.919000    1383.402679
1.920000    1385.471313
1.921000    1388.015930
1.922000    1391.355286
1.923000    1394.536530
1.924000    1397.082642
1.925000    1399.628418
1.926000    1401.061447
1.927000    1405.196014
1.928000    1408.378586
1.929000    1410.128174
1.930000    1412.035645
1.931000    1416.172256
1.932000    1418.241669
1.933000    1419.991592
1.934000    1422.537552
1.935000    1424.924728
1.936000    1427.945160
1.937000    1429.697205
1.938000    1430.968094
1.939000    1433.356796
1.940000    1436.378082
1.941000    1437.493362
1.942000    1439.561676
1.943000    1439.566940
1.944000    1443.063263
1.945000    1441.633545
1.946000    1445.610214
1.947000    1446.248627
1.948000    1447.524506
1.949000    1448.159973
1.950000    1448.639633
1.951000    1448.639435
1.952000    1448.325531
1.953000    1447.690109
1.954000    1448.326202
1.955000    1446.578583
1.956000    1446.264877
1.957000    1443.086777
1.958000    1440.542465
1.959000    1439.113098
1.960000    1435.936508
1.961000    1432.121490
1.962000    1429.258789
1.963000    1425.285645
1.964000    1422.584717
1.965000    1417.021301
1.966000    1411.137802
1.967000    1404.779938
1.968000    1398.102722
1.969000    1389.835693
1.970000    1382.522705
1.971000    1374.097397
1.972000    1365.510483
1.973000    1355.814285
1.974000    1345.001816
1.975000    1334.827805
1.976000    1323.694305
1.977000    1310.497772
1.978000    1297.938202
1.979000    1285.536301
1.980000    1270.430771
1.981000    1256.441544
1.982000    1241.173767
1.983000    1226.230347
1.984000    1211.283310
1.985000    1195.379089
1.986000    1176.459198
1.987000    1157.220261
1.988000    1136.707108
1.989000    1117.308929
1.990000    1095.523178
1.991000    1074.533188
1.992000    1050.841614
1.993000    1026.511459
1.994000    1003.293091
1.995000    978.011902
1.996000    951.932297
1.997000    925.853378
1.998000    900.090721
1.999000    870.832565
2.000000    839.186394
2.001000    806.109550
2.002000    771.600876
2.003000    735.660683
2.004000    702.266777
2.005000    664.735130
2.006000    625.931587
2.007000    583.631248
2.008000    540.693787
2.009000    499.027893
2.010000    458.474789
2.011000    409.492573
2.012000    361.783916
2.013000    316.301815
2.014000    277.022278
2.015000    239.647432
2.016000    204.342690
2.017000    167.765714
2.018000    130.712226
2.019000    102.719826
2.020000    84.737217
2.021000    65.153391
2.022000    39.362043
2.023000    16.282233
2.024000    -3.466664
2.025000    -17.014020
2.026000    -19.741758
2.027000    -6.878864
2.028000    -3.695480
2.029000    -15.600059
2.030000    -17.646168
2.031000    0.664597
2.032000    15.314632
2.033000    22.802482
2.034000    22.488400
2.035000    19.142418
2.036000    7.837370
2.037000    -5.216743
2.038000    -13.976662
2.039000    -18.756143
2.040000    -14.778680
2.041000    -3.478443
2.042000    12.272772
2.043000    19.281310
2.044000    6.870942
2.045000    -3.306413
2.046000    -0.443719
2.047000    1.779702
2.048000    -3.150278
2.049000    -0.124833
2.050000    4.010411
2.051000    2.421780
2.052000    4.330294
2.053000    4.491884
2.054000    2.738182
2.055000    0.509790
2.056000    -0.287096
2.057000    0.826193
2.058000    -0.447694
2.059000    1.143586
2.060000    2.575926
2.061000    2.894809
2.062000    3.054584
2.063000    3.212870
2.064000    1.940472
2.065000    1.144416
2.066000    0.508633
2.067000    -0.286926
2.068000    -0.446864
2.069000    -0.444880
2.070000    0.987954
2.071000    1.783015
2.072000    1.943448
2.073000    0.989111
2.074000    1.465124
2.075000    0.353823
2.076000    0.986130
2.077000    1.146732
2.078000    1.463632
2.079000    -0.125002
2.080000    0.034277
2.081000    0.829337
2.082000    1.145907
2.083000    1.467272
2.084000    2.100411
2.085000    1.146733
2.086000    1.943121
2.087000    0.669729
2.088000    0.191402
2.089000    1.625061
2.090000    0.827018
2.091000    0.830826
2.092000    -0.124010
2.093000    0.511611
2.094000    0.831159
2.095000    0.669563
2.096000    0.671053
2.097000    0.352335
2.098000    1.147728
2.099000    0.352665
2.100000    1.148884
2.101000    0.669895
2.102000    0.510948
2.103000    0.830165
2.104000    1.306671
2.105000    1.309156
2.106000    0.194215
2.107000    1.784340
2.108000    0.034940
2.109000    -1.397066
2.110000    0.670392
2.111000    1.624067
2.112000    0.352167
2.113000    1.147396
2.114000    1.306341
2.115000    0.034443
2.116000    1.779867
2.117000    0.667575
2.118000    0.988779
2.119000    0.670888
2.120000    0.510284
2.121000    0.352002
2.122000    -0.760950
2.123000    2.259191
2.124000    0.829339
2.125000    0.670060
2.126000    1.466942
2.127000    0.828509
2.128000    1.466611
2.129000    0.035767
2.130000    1.306673
2.131000    0.988782
2.132000    0.829005
2.133000    0.669565
2.134000    0.829171
2.135000    0.510949
2.136000    0.670889
2.137000    1.466776
2.138000    1.305679
2.139000    0.036594
2.140000    1.624070
2.141000    0.511117
2.142000    0.668735
2.143000    0.352004
2.144000    0.193389
2.145000    0.511611
2.146000    0.668902
2.147000    1.784340
2.148000    1.304686
2.149000    2.420455
2.150000    1.147395
2.151000    0.988946
2.152000    0.670394
2.153000    -0.443391
2.154000    0.669067
2.155000    0.987125
2.156000    0.671384
2.157000    0.510949
2.158000    1.461977
2.159000    1.941629
2.160000    1.464957
2.161000    1.147728
2.162000    0.670393
2.163000    0.988450
2.164000    0.511941
2.165000    1.943615
2.166000    1.623736
2.167000    1.942293
2.168000    0.035600
2.169000    1.465453
2.170000    1.625394
2.171000    1.147394
2.172000    0.988613
2.173000    1.784010
2.174000    0.988286
2.175000    1.146732
2.176000    0.987956
2.177000    2.737519
2.178000    1.304355
2.179000    1.782350
2.180000    0.830498
2.181000    1.466277
2.182000    2.738015
2.183000    0.829009
2.184000    1.149052
2.185000    1.782187
2.186000    1.782519
2.187000    2.260182
2.188000    0.986795
2.189000    1.624234
2.190000    0.191568
2.191000    2.101568
2.192000    1.466114
2.193000    1.146898
2.194000    1.146731
2.195000    1.782185
2.196000    1.465784
2.197000    1.306342
2.198000    0.669233
2.199000    1.942457
2.200000    -0.285769
2.201000    -0.124338
2.202000    0.510784
2.203000    2.578407
2.204000    1.304851
2.205000    1.306341
2.206000    1.306177
2.207000    0.830329
2.208000    0.035270
2.209000    0.672046
2.210000    0.829999
2.211000    0.827847
2.212000    0.511278
2.213000    0.510616
2.214000    1.941301
2.215000    1.146733
2.216000    1.623736
2.217000    1.466279
2.218000    0.828842
2.219000    1.146898
2.220000    0.349850
2.221000    1.623735
2.222000    0.988118
2.223000    0.035103
2.224000    0.511776
2.225000    2.101734
2.226000    2.102729
2.227000    1.145079
2.228000    0.669397
2.229000    0.511114
2.230000    1.464957
2.231000    0.350183
2.232000    1.783842
2.233000    0.989112
2.234000    1.463134
2.235000    1.306011
2.236000    2.260018
2.237000    0.193387
2.238000    1.307333
2.239000    1.623901
2.240000    2.418137
2.241000    0.669397
2.242000    0.986961
2.243000    0.828013
2.244000    1.466113
2.245000    0.989113
2.246000    1.942954
2.247000    2.258858
2.248000    0.828841
2.249000    1.464957
2.250000    1.147891
2.251000    1.624399
2.252000    0.034441
2.253000    1.780697
2.254000    1.147726
2.255000    -0.283618
2.256000    0.033117
2.257000    1.464626
2.258000    0.988115
2.259000    1.146237
2.260000    1.465620
2.261000    1.147727
2.262000    0.033779
2.263000    0.828510
2.264000    0.670224
2.265000    1.149382
2.266000    1.463798
2.267000    0.034606
2.268000    1.145910
2.269000    1.940140
2.270000    0.193553
2.271000    0.668072
2.272000    -0.760954
2.273000    1.944277
2.274000    0.353658
2.275000    0.192890
2.276000    0.989607
2.277000    0.986628
2.278000    1.146402
2.279000    1.784999
2.280000    1.623405
2.281000    0.828343
2.282000    1.305680
2.283000    1.464790
2.284000    1.145574
2.285000    0.829005
2.286000    1.307001
2.287000    0.988945
2.288000    1.305681
2.289000    0.987622
2.290000    1.943285
2.291000    0.827351
2.292000    0.352331
2.293000    0.670391
2.294000    1.943779
2.295000    1.305349
2.296000    0.670061
2.297000    0.671384
2.298000    1.943946
2.299000    2.102396
2.300000    0.985800
2.301000    0.989109
2.302000    1.626552
2.303000    0.828014
2.304000    0.668073
2.305000    0.828180
2.306000    -0.282626
2.307000    0.987458
2.308000    -0.603993
2.309000    0.352666
2.310000    0.829334
2.311000    0.989277
2.312000    0.034442
2.313000    -0.442396
2.314000    0.987456
2.315000    1.306671
2.316000    -0.759956
2.317000    0.511611
2.318000    1.306504
2.319000    0.033449
2.320000    0.986793
2.321000    1.146899
2.322000    1.623903
2.323000    0.033781
2.324000    1.147396
2.325000    1.465123
2.326000    1.306010
2.327000    2.100078
2.328000    1.465619
2.329000    1.464957
2.330000    2.577248
2.331000    1.305515
2.332000    0.034773
2.333000    0.669232
2.334000    0.670227
2.335000    1.306340
2.336000    0.830495
2.337000    1.783346
2.338000    1.941299
2.339000    1.624731
2.340000    1.623241
2.341000    1.464789
2.342000    0.352169
2.343000    1.464789
2.344000    0.986958
2.345000    2.258694
2.346000    1.622744
2.347000    0.828508
2.348000    1.146733
2.349000    1.622248
2.350000    2.259522
2.351000    1.146569
2.352000    0.986794
2.353000    -0.126823
2.354000    1.784007
2.355000    1.305515
2.356000    0.830330
2.357000    0.829502
2.358000    2.418137
2.359000    0.986463
2.360000    1.305844
2.361000    1.306672
2.362000    1.781192
2.363000    2.419957
2.364000    0.829999
2.365000    0.829831
2.366000    1.465618
2.367000    0.987788
2.368000    0.988946
2.369000    1.306836
2.370000    0.988451
2.371000    2.261013
2.372000    2.100740
2.373000    2.259356
2.374000    1.784172
2.375000    0.986793
2.376000    2.100905
2.377000    1.783677
2.378000    0.671053
2.379000    2.259520
2.380000    1.305679
2.381000    2.419958
2.382000    0.830829
2.383000    0.986130
2.384000    0.990271
2.385000    0.828012
2.386000    1.626055
2.387000    2.100906
2.388000    2.102065
2.389000    1.940471
2.390000    0.830659
2.391000    1.466943
2.392000    0.986630
2.393000    0.829174
2.394000    2.099914
2.395000    0.511942
2.396000    1.462473
2.397000    1.942460
2.398000    0.513430
2.399000    1.146237
2.400000    0.191239
2.401000    0.671219
2.402000    2.259191
2.403000    1.466117
2.404000    0.671053
2.405000    1.942625
2.406000    1.623240
2.407000    1.305350
2.408000    0.192891
2.409000    0.510121
2.410000    1.306175
2.411000    0.510948
2.412000    1.146238
2.413000    0.988117
2.414000    1.624068
2.415000    1.783346
2.416000    1.464460
2.417000    1.465290
2.418000    1.306177
2.419000    1.465288
2.420000    1.941961
2.421000    0.034276
2.422000    0.194711
2.423000    0.671386
2.424000    1.144745
2.425000    1.305513
2.426000    0.988118
2.427000    0.672214
2.428000    1.781855
2.429000    0.828841
2.430000    0.670226
2.431000    1.781193
2.432000    1.307004
2.433000    1.464459
2.434000    1.940803
2.435000    1.305679
2.436000    1.941629
2.437000    1.781856
2.438000    1.941299
2.439000    1.624234
2.440000    1.781691
2.441000    0.194711
2.442000    1.306838
2.443000    0.511280
2.444000    1.305843
2.445000    0.827352
2.446000    0.352498
2.447000    0.509956
2.448000    1.464792
2.449000    1.306010
2.450000    1.940306
2.451000    1.784835
2.452000    0.986129
2.453000    1.942789
2.454000    1.149052
2.455000    1.781858
2.456000    1.622744
2.457000    0.510451
2.458000    0.827681
2.459000    0.667743
2.460000    2.259026
2.461000    0.988283
2.462000    0.987788
2.463000    1.463469
2.464000    1.306176
2.465000    0.986297
2.466000    0.989112
2.467000    1.621916
2.468000    0.511443
2.469000    1.783346
2.470000    2.259355
2.471000    0.033451
2.472000    1.464954
2.473000    1.624731
2.474000    1.462473
2.475000    1.464129
2.476000    0.829337
2.477000    1.147396
2.478000    1.463135
2.479000    0.985305
2.480000    0.512770
2.481000    1.146899
2.482000    1.782352
2.483000    0.828178
2.484000    0.352167
2.485000    0.830166
2.486000    -0.125992
2.487000    0.829172
2.488000    0.669565
2.489000    0.670227
2.490000    1.145739
2.491000    0.512107
2.492000    2.100409
2.493000    0.828841
2.494000    0.668903
2.495000    0.827186
2.496000    1.781855
2.497000    2.260349
2.498000    0.033281
2.499000    0.671551
2.500000    1.307003
2.501000    0.985969
2.502000    1.304522
2.503000    0.828842
2.504000    2.260513
2.505000    1.304687
2.506000    0.032621
2.507000    0.827352
2.508000    0.669728
2.509000    -0.284940
2.510000    0.829172
2.511000    0.988119
2.512000    0.668072
2.513000    2.417475
2.514000    0.986793
2.515000    1.782354
2.516000    1.306342
2.517000    3.212040
2.518000    0.828509
2.519000    0.510784
2.520000    1.148554
2.521000    1.465785
2.522000    1.623574
2.523000    0.670226
2.524000    0.034607
2.525000    1.145904
2.526000    1.147231
2.527000    0.511612
2.528000    -0.283948
2.529000    1.147393
2.530000    0.193387
2.531000    1.306177
2.532000    0.669562
2.533000    0.034936
2.534000    1.464294
2.535000    0.351835
2.536000    1.147228
2.537000    1.940471
2.538000    0.828345
2.539000    2.260683
2.540000    1.305184
2.541000    1.465287
2.542000    0.828842
2.543000    1.464462
2.544000    2.260186
2.545000    2.102398
2.546000    -0.600349
2.547000    1.307998
2.548000    0.827847
2.549000    1.305018
2.550000    1.146567
2.551000    2.578240
2.552000    0.827849
2.553000    1.781526
2.554000    2.578241
2.555000    0.988287
2.556000    0.829337
2.557000    1.465619
2.558000    -0.284940
2.559000    0.669399
2.560000    0.988286
2.561000    0.828343
2.562000    1.305845
2.563000    0.510120
2.564000    1.783014
2.565000    0.987788
2.566000    0.352830
2.567000    0.513431
2.568000    0.670888
2.569000    1.305349
2.570000    0.669399
2.571000    -0.124174
2.572000    1.146237
2.573000    1.147396
2.574000    0.669731
2.575000    1.306837
2.576000    1.306010
2.577000    1.624398
2.578000    0.351506
2.579000    0.352666
2.580000    1.305183
2.581000    0.830660
2.582000    0.511115
2.583000    0.987293
2.584000    0.830826
2.585000    0.512770
2.586000    0.034444
2.587000    0.351672
2.588000    -0.284112
2.589000    0.671053
2.590000    0.035931
2.591000    0.194381
2.592000    0.830001
2.593000    -0.443225
2.594000    1.306341
2.595000    0.669067
2.596000    0.987783
2.597000    0.352005
2.598000    0.829172
2.599000    0.829667
2.600000    1.147726
2.601000    0.986794
2.602000    0.191236
2.603000    0.987622
2.604000    0.829008
2.605000    0.828675
2.606000    0.829833
2.607000    1.306176
2.608000    0.670720
2.609000    0.353658
2.610000    0.829503
2.611000    1.465453
2.612000    0.671219
2.613000    1.306175
2.614000    1.781360
2.615000    1.784007
2.616000    0.510123
2.617000    1.147564
2.618000    0.512108
2.619000    0.669897
2.620000    1.146733
2.621000    0.350347
2.622000    0.669896
2.623000    -0.283780
2.624000    1.148055
2.625000    1.465454
2.626000    1.783514
2.627000    2.102729
2.628000    63.879938
2.629000    138.717523
2.630000    289.902692
2.631000    333.860898
2.632000    309.864259
2.633000    387.604968
2.634000    583.869287
2.635000    705.125141
2.636000    553.711956
2.637000    325.356504
2.638000    217.670800
2.639000    285.352853
2.640000    338.272834
2.641000    335.228813
2.642000    373.956207
2.643000    648.252235
2.644000    950.036865
2.645000    1012.241348
2.646000    949.997559
2.647000    901.918854
2.648000    984.008209
2.649000    1027.393921
2.650000    1030.407639
2.651000    1034.869797
2.652000    1189.267838
2.653000    1428.125504
2.654000    1692.481110
2.655000    1914.011734
2.656000    2187.173096
2.657000    2493.257782
2.658000    2736.731506
2.659000    2803.266510
2.660000    2786.275848
2.661000    2874.718506
2.662000    3050.296387
2.663000    3101.747009
2.664000    2957.463196
2.665000    2788.867126
2.666000    2724.593170
2.667000    2701.304749
2.668000    2593.603851
2.669000    2418.966858
2.670000    2275.803848
2.671000    2200.392029
2.672000    2117.969711
2.673000    1984.650986
2.674000    1839.899063
2.675000    1749.185532
2.676000    1703.616776
2.677000    1653.285828
2.678000    1588.143921
2.679000    1521.417053
2.680000    1463.111542
2.681000    1397.793457
2.682000    1323.421295
2.683000    1251.750153
2.684000    1198.187286
2.685000    1160.694046
2.686000    1124.467041
2.687000    1081.387939
2.688000    1050.083984
2.689000    1031.325363
2.690000    1024.009552
2.691000    1018.610046
2.692000    1003.341278
2.693000    982.826767
2.694000    965.657990
2.695000    956.268570
2.696000    952.921112
2.697000    951.487442
2.698000    949.725830
2.699000    952.895340
2.700000    964.803757
2.701000    987.671005
2.702000    1010.540756
2.703000    1028.323380
2.704000    1043.713379
2.705000    1070.866882
2.706000    1111.364075
2.707000    1156.153824
2.708000    1194.429230
2.709000    1226.976135
2.710000    1263.652664
2.711000    1314.323395
2.712000    1363.879333
2.713000    1409.462784
2.714000    1445.663330
2.715000    1485.516907
2.716000    1529.196320
2.717000    1568.273376
2.718000    1591.766296
2.719000    1608.429443
2.720000    1632.253510
2.721000    1659.735229
2.722000    1688.497925
2.723000    1705.023315
2.724000    1710.735565
2.725000    1721.704681
2.726000    1739.827942
2.727000    1759.068420
2.728000    1769.412445
2.729000    1775.625580
2.730000    1784.225647
2.731000    1798.724823
2.732000    1812.100128
2.733000    1815.623352
2.734000    1811.998016
2.735000    1808.688782
2.736000    1817.783447
2.737000    1827.196777
2.738000    1826.110413
2.739000    1818.985413
2.740000    1812.969635
2.741000    1816.174164
2.742000    1816.196167
2.743000    1809.854218
2.744000    1802.240601
2.745000    1797.805359
2.746000    1794.159851
2.747000    1788.605621
2.748000    1776.688171
2.749000    1765.087891
2.750000    1755.870972
2.751000    1747.925507
2.752000    1736.003754
2.753000    1721.375519
2.754000    1708.658875
2.755000    1696.415771
2.756000    1682.422394
2.757000    1667.475983
2.758000    1652.690491
2.759000    1637.741852
2.760000    1624.066345
2.761000    1610.234253
2.762000    1595.604950
2.763000    1582.247375
2.764000    1569.525696
2.765000    1557.125275
2.766000    1544.720032
2.767000    1534.065186
2.768000    1522.298767
2.769000    1509.101929
2.770000    1498.606323
2.771000    1486.999634
2.772000    1475.074524
2.773000    1463.626801
2.774000    1454.880127
2.775000    1444.864838
2.776000    1435.483398
2.777000    1428.805695
2.778000    1423.239777
2.779000    1419.742432
2.780000    1418.311768
2.781000    1416.881104
2.782000    1416.085510
2.783000    1417.991882
2.784000    1418.150787
2.785000    1424.508026
2.786000    1425.935394
2.787000    1431.496307
2.788000    1435.148743
2.789000    1441.984741
2.790000    1447.705994
2.791000    1455.491516
2.792000    1463.119965
2.793000    1470.268524
2.794000    1480.282806
2.795000    1489.342560
2.796000    1499.831329
2.797000    1510.479401
2.798000    1519.379883
2.799000    1530.824005
2.800000    1538.291626
2.801000    1549.737427
2.802000    1556.729401
2.803000    1564.676514
2.804000    1572.463257
2.805000    1580.412018
2.806000    1586.768799
2.807000    1593.126678
2.808000    1596.943512
2.809000    1602.668427
2.810000    1606.324677
2.811000    1609.346893
2.812000    1613.007477
2.813000    1614.279755
2.814000    1614.758514
2.815000    1616.351776
2.816000    1615.879120
2.817000    1616.678101
2.818000    1613.975525
2.819000    1613.822083
2.820000    1611.280396
2.821000    1608.737915
2.822000    1606.992126
2.823000    1606.201538
2.824000    1603.498108
2.825000    1602.545471
2.826000    1600.160431
2.827000    1600.002472
2.828000    1597.457336
2.829000    1597.613770
2.830000    1597.772491
2.831000    1596.499908
2.832000    1600.471222
2.833000    1600.627533
2.834000    1601.896088
2.835000    1604.276154
2.836000    1607.291809
2.837000    1610.784485
2.838000    1614.597198
2.839000    1619.518127
2.840000    1624.283875
2.841000    1630.955109
2.842000    1635.878296
2.843000    1644.297974
2.844000    1652.083832
2.845000    1660.187927
2.846000    1667.333740
2.847000    1677.342834
2.848000    1685.127380
2.849000    1694.819794
2.850000    1704.831635
2.851000    1713.729248
2.852000    1723.262390
2.853000    1734.706177
2.854000    1743.763763
2.855000    1753.139221
2.856000    1762.516754
2.857000    1770.779144
2.858000    1779.361572
2.859000    1786.991333
2.860000    1795.414124
2.861000    1803.204132
2.862000    1808.287933
2.863000    1815.124420
2.864000    1819.892792
2.865000    1824.024902
2.866000    1828.159973
2.867000    1831.656982
2.868000    1834.363220
2.869000    1836.746857
2.870000    1836.749451
2.871000    1838.340927
2.872000    1837.388077
2.873000    1836.754150
2.874000    1836.123642
2.875000    1834.849564
2.876000    1832.944702
2.877000    1831.199081
2.878000    1828.342545
2.879000    1826.116547
2.880000    1823.895630
2.881000    1821.192627
2.882000    1817.854050
2.883000    1814.519012
2.884000    1811.496048
2.885000    1807.208115
2.886000    1803.234467
2.887000    1799.897598
2.888000    1795.130173
2.889000    1792.109924
2.890000    1785.434509
2.891000    1782.097122
2.892000    1779.871506
2.893000    1775.577316
2.894000    1772.082184
2.895000    1769.378464
2.896000    1769.061707
2.897000    1767.950241
2.898000    1765.724487
2.899000    1763.498917
2.900000    1760.478500
2.901000    1759.685196
2.902000    1759.049438
2.903000    1757.461441
2.904000    1753.804214
2.905000    1752.692902
2.906000    1751.581268
2.907000    1751.899460
2.908000    1749.673752
2.909000    1746.017670
2.910000    1745.542984
2.911000    1746.499786
2.912000    1745.227600
2.913000    1744.116272
2.914000    1742.369370
2.915000    1741.573929
2.916000    1738.237457
2.917000    1737.920166
2.918000    1732.672485
2.919000    1728.860077
2.920000    1725.521866
2.921000    1721.550415
2.922000    1716.464615
2.923000    1712.171768
2.924000    1708.515152
2.925000    1702.794266
2.926000    1698.187485
2.927000    1692.940598
2.928000    1689.922287
2.929000    1683.405472
2.930000    1678.954514
2.931000    1672.597778
2.932000    1664.966721
2.933000    1660.359253
2.934000    1653.363327
2.935000    1646.845871
2.936000    1638.737976
2.937000    1633.176529
2.938000    1626.022095
2.939000    1618.712723
2.940000    1611.557693
2.941000    1604.088898
2.942000    1596.297363
2.943000    1588.826935
2.944000    1580.722000
2.945000    1574.363495
2.946000    1566.257050
2.947000    1557.195969
2.948000    1549.249359
2.949000    1540.347382
2.950000    1533.669800
2.951000    1524.451767
2.952000    1517.299484
2.953000    1507.604645
2.954000    1501.085541
2.955000    1492.185883
2.956000    1485.669403
2.957000    1477.563828
2.958000    1470.253647
2.959000    1463.577393
2.960000    1456.582458
2.961000    1448.159149
2.962000    1442.278320
2.963000    1436.080200
2.964000    1430.518753
2.965000    1423.683365
2.966000    1418.120789
2.967000    1410.651321
2.968000    1403.977707
2.969000    1397.302658
2.970000    1391.420990
2.971000    1385.224411
2.972000    1377.753098
2.973000    1370.283264
2.974000    1363.768814
2.975000    1356.457809
2.976000    1351.529953
2.977000    1343.264587
2.978000    1334.522217
2.979000    1329.755203
2.980000    1324.354309
2.981000    1318.314041
2.982000    1311.478546
2.983000    1304.487869
2.984000    1298.605728
2.985000    1291.612717
2.986000    1286.050293
2.987000    1279.371582
2.988000    1273.653320
2.989000    1265.547409
2.990000    1258.870834
2.991000    1254.104401
2.992000    1246.156006
2.993000    1241.069046
2.994000    1233.756866
2.995000    1227.556778
2.996000    1221.041199
2.997000    1215.160492
2.998000    1209.756653
2.999000    1201.492920
3.000000    1197.835876
3.001000    1191.796280
3.002000    1185.914276
3.003000    1181.942215
3.004000    1175.105576
3.005000    1168.746902
3.006000    1164.772949
3.007000    1159.369064
3.008000    1153.331619
3.009000    1148.401138
3.010000    1143.156754
3.011000    1137.593597
3.012000    1134.570709
3.013000    1128.534760
3.014000    1122.652237
3.015000    1117.087952
3.016000    1112.797546
3.017000    1108.823746
3.018000    1103.420410
3.019000    1096.424316
3.020000    1091.816193
3.021000    1085.617477
3.022000    1081.165833
3.023000    1076.398605
3.024000    1070.518105
3.025000    1064.318184
3.026000    1059.867371
3.027000    1053.828239
3.028000    1048.106529
3.029000    1043.338974
3.030000    1036.979965
3.031000    1031.259239
3.032000    1025.057213
3.033000    1020.131027
3.034000    1015.838829
3.035000    1010.277016
3.036000    1003.917671
3.037000    1000.101158
3.038000    994.378586
3.039000    990.565048
3.040000    985.478622
3.041000    981.663750
3.042000    975.782242
3.043000    973.399216
3.044000    967.357101
3.045000    963.223656
3.046000    959.250175
3.047000    954.163063
3.048000    949.552979
3.049000    946.373581
3.050000    942.083649
3.051000    937.312157
3.052000    933.815994
3.053000    929.841026
3.054000    925.072128
3.055000    922.368088
3.056000    917.280991
3.057000    913.306145
3.058000    907.744995
3.059000    903.929459
3.060000    900.432823
3.061000    896.458534
3.062000    891.372932
3.063000    886.920113
3.064000    883.264343
3.065000    879.131233
3.066000    876.430008
3.067000    871.660774
3.068000    867.368095
3.069000    863.713486
3.070000    860.692696
3.071000    855.764526
3.072000    851.788223
3.073000    848.447723
3.074000    845.111168
3.075000    840.978409
3.076000    837.480431
3.077000    833.345871
3.078000    830.167442
3.079000    825.874245
3.080000    822.058701
3.081000    818.402451
3.082000    813.950478
3.083000    810.135925
3.084000    807.114281
3.085000    801.867912
3.086000    798.850769
3.087000    795.035706
3.088000    790.264854
3.089000    788.199532
3.090000    785.498642
3.091000    781.683426
3.092000    777.231628
3.093000    774.371567
3.094000    770.877075
3.095000    767.537224
3.096000    765.313469
3.097000    762.451118
3.098000    757.522781
3.099000    755.298042
3.100000    751.642952
3.101000    749.894867
3.102000    746.715286
3.103000    744.331436
3.104000    740.517387
3.105000    735.905121
3.106000    733.841141
3.107000    729.708572
3.108000    727.004837
3.109000    722.395706
3.110000    719.852257
3.111000    714.922943
3.112000    712.224167
3.113000    707.453979
3.114000    702.364700
3.115000    700.458172
3.116000    695.848576
3.117000    692.827591
3.118000    687.743481
3.119000    684.087578
3.120000    681.065590
3.121000    675.024166
3.122000    672.161312
3.123000    669.143154
3.124000    665.328793
3.125000    661.833126
3.126000    658.017113
3.127000    654.838848
3.128000    650.705738
3.129000    647.683956
3.130000    645.459373
3.131000    642.282078
3.132000    640.374905
3.133000    635.446259
3.134000    633.059586
3.135000    631.629745
3.136000    630.518421
3.137000    626.860363
3.138000    626.066792
3.139000    622.886051
3.140000    621.138638
3.141000    617.959225
3.142000    614.778816
3.143000    613.348305
3.144000    611.438129
3.145000    609.690536
3.146000    605.877151
3.147000    602.855862
3.148000    600.472355
3.149000    595.385406
3.150000    594.431728
3.151000    589.187481
3.152000    586.961735
3.153000    582.985771
3.154000    578.218727
3.155000    576.788223
3.156000    572.974495
3.157000    569.953857
3.158000    567.571476
3.159000    562.803947
3.160000    559.781647
3.161000    556.443275
3.162000    553.427288
3.163000    550.565083
3.164000    546.272877
3.165000    543.094925
3.166000    540.073486
3.167000    538.007175
3.168000    533.876221
3.169000    530.696987
3.170000    527.837429
3.171000    524.974087
3.172000    522.592388
3.173000    520.047596
3.174000    517.821854
3.175000    515.277393
3.176000    513.212925
3.177000    509.872240
3.178000    508.283777
3.179000    506.855726
3.180000    504.152666
3.181000    500.498693
3.182000    499.383127
3.183000    496.840635
3.184000    492.706545
3.185000    492.708708
3.186000    488.893013
3.187000    486.985817
3.188000    484.919336
3.189000    482.376057
3.190000    479.037521
3.191000    476.333788
3.192000    473.472916
3.193000    472.201330
3.194000    468.706526
3.195000    465.840849
3.196000    464.254860
3.197000    461.711414
3.198000    457.577145
3.199000    455.353075
3.200000    452.172991
3.201000    451.062677
3.202000    448.043863
3.203000    444.546888
3.204000    442.958742
3.205000    440.732836
3.206000    437.872461
3.207000    436.920111
3.208000    433.262526
3.209000    431.358988
3.210000    429.768362
3.211000    427.543953
3.212000    426.749718
3.213000    424.206913
3.214000    421.985310
3.215000    418.804221
3.216000    419.918999
3.217000    417.057977
3.218000    414.833553
3.219000    413.243099
3.220000    411.657609
3.221000    410.385383
3.222000    408.477527
3.223000    407.206619
3.224000    403.713605
3.225000    401.486038
3.226000    400.056031
3.227000    398.152145
3.228000    396.084699
3.229000    393.702652
3.230000    391.318463
3.231000    390.046724
3.232000    389.411272
3.233000    386.231862
3.234000    385.122873
3.235000    382.900263
3.236000    381.626710
3.237000    379.561409
3.238000    378.451433
3.239000    376.860157
3.240000    374.477941
3.241000    373.524106
3.242000    370.664885
3.243000    370.031259
3.244000    368.282018
3.245000    365.580927
3.246000    364.470291
3.247000    362.242229
3.248000    362.245882
3.249000    360.655087
3.250000    358.591943
3.251000    358.430835
3.252000    356.368511
3.253000    354.141764
3.254000    353.667087
3.255000    351.281400
3.256000    350.965667
3.257000    348.422866
3.258000    347.308917
3.259000    346.356063
3.260000    343.652484
3.261000    342.381754
3.262000    339.997064
3.263000    338.408261
3.264000    337.456246
3.265000    335.230673
3.266000    333.797167
3.267000    331.572419
3.268000    329.665734
3.269000    329.187730
3.270000    327.121593
3.271000    324.577306
3.272000    322.512166
3.273000    321.873734
3.274000    320.444042
3.275000    319.490544
3.276000    315.991574
3.277000    316.150349
3.278000    314.718513
3.279000    313.607044
3.280000    313.448272
3.281000    311.061433
3.282000    308.993807
3.283000    308.358852
3.284000    308.516634
3.285000    306.607800
3.286000    305.973340
3.287000    305.495666
3.288000    305.653792
3.289000    304.063497
3.290000    304.062662
3.291000    303.427049
3.292000    302.792920
3.293000    302.951376
3.294000    302.636133
3.295000    302.953030
3.296000    301.999009
3.297000    301.839745
3.298000    301.840221
3.299000    301.999508
3.300000    301.521346
3.301000    303.273553
3.302000    304.544467
3.303000    304.226894
3.304000    302.796713
3.305000    303.434810
3.306000    305.023940
3.307000    303.278509
3.308000    304.549757
3.309000    305.505752
3.310000    305.026924
3.311000    305.346956
3.312000    306.460902
3.313000    305.667993
3.314000    306.938409
3.315000    307.895219
3.316000    308.690782
3.317000    309.327224
3.318000    309.327727
3.319000    311.236241
3.320000    311.555945
3.321000    312.986958
3.322000    313.307831
3.323000    313.308155
3.324000    315.852617
3.325000    315.851289
3.326000    317.605002
3.327000    317.443738
3.328000    318.400391
3.329000    318.239282
3.330000    318.877397
3.331000    319.673937
3.332000    321.743722
3.333000    321.264398
3.334000    321.741066
3.335000    323.014950
3.336000    323.491294
3.337000    323.970119
3.338000    325.083400
3.339000    325.400630
3.340000    327.148873
3.341000    327.627032
3.342000    329.215497
3.343000    328.898263
3.344000    328.899100
3.345000    330.964734
3.346000    331.918742
3.347000    333.189313
3.348000    333.825426
3.349000    335.416537
3.350000    336.527346
3.351000    336.687110
3.352000    338.914018
3.353000    339.709575
3.354000    341.296387
3.355000    343.362861
3.356000    343.679756
3.357000    343.998148
3.358000    346.060472
3.359000    347.493305
3.360000    348.764382
3.361000    350.034622
3.362000    348.760738
3.363000    350.986639
3.364000    351.145919
3.365000    354.481638
3.366000    353.526641
3.367000    355.117422
3.368000    356.862855
3.369000    356.384851
3.370000    357.813550
3.371000    359.087104
3.372000    359.879180
3.373000    361.151745
3.374000    360.672431
3.375000    362.102614
3.376000    362.736901
3.377000    364.006825
3.378000    364.961825
3.379000    366.711051
3.380000    367.183436
3.381000    367.820533
3.382000    369.887168
3.383000    370.677262
3.384000    370.519971
3.385000    374.174577
3.386000    374.493459
3.387000    375.129243
3.388000    378.625073
3.389000    378.307319
3.390000    380.531410
3.391000    382.598372
3.392000    384.028565
3.393000    386.094356
3.394000    387.365599
3.395000    389.751630
3.396000    391.498044
3.397000    394.200123
3.398000    397.219102
3.399000    400.715767
3.400000    402.147413
3.401000    404.214387
3.402000    406.120255
3.403000    408.345507
3.404000    412.161866
3.405000    415.816286
3.406000    417.402945
3.407000    421.060845
3.408000    421.535537
3.409000    426.305581
3.410000    429.960329
3.411000    431.706090
3.412000    435.205072
3.413000    438.700395
3.414000    442.514422
3.415000    445.375792
3.416000    449.506082
3.417000    451.571704
3.418000    455.067376
3.419000    458.882580
3.420000    463.014838
3.421000    466.031669
3.422000    469.370048
3.423000    473.342034
3.424000    476.839848
3.425000    483.356287
3.426000    485.578557
3.427000    489.549394
3.428000    494.161838
3.429000    499.880895
3.430000    503.851399
3.431000    507.824239
3.432000    512.273067
3.433000    515.767404
3.434000    522.124104
3.435000    525.938313
3.436000    530.068918
3.437000    534.833165
3.438000    539.761320
3.439000    545.163822
3.440000    549.772762
3.441000    554.377083
3.442000    558.352890
3.443000    564.231726
3.444000    568.997310
3.445000    574.559596
3.446000    579.007274
3.447000    584.569875
3.448000    589.975705
3.449000    594.739144
3.450000    599.823754
3.451000    603.478172
3.452000    611.107413
3.453000    614.443806
3.454000    621.434933
3.455000    626.996902
3.456000    633.033884
3.457000    637.644964
3.458000    643.363056
3.459000    648.926842
3.460000    654.170397
3.461000    660.367975
3.462000    665.293829
3.463000    670.695683
3.464000    675.940077
3.465000    683.090641
3.466000    687.700590
3.467000    692.626251
3.468000    697.231548
3.469000    703.908789
3.470000    708.199013
3.471000    714.874582
3.472000    719.482531
3.473000    724.248568
3.474000    728.222734
3.475000    735.533411
3.476000    738.550417
3.477000    744.113533
3.478000    748.243490
3.479000    754.602827
3.480000    758.892202
3.481000    762.071630
3.482000    765.406853
3.483000    768.585594
3.484000    772.399160
3.485000    776.212523
3.486000    781.297010
3.487000    783.837336
3.488000    786.220671
3.489000    788.923101
3.490000    792.576048
3.491000    795.276491
3.492000    797.976440
3.493000    801.154684
3.494000    803.699316
3.495000    805.126205
3.496000    807.031071
3.497000    807.348616
3.498000    811.003206
3.499000    812.908745
3.500000    813.065708
3.501000    816.403255
3.502000    816.559227
3.503000    818.146193
3.504000    819.892632
3.505000    821.003443
3.506000    821.953650
3.507000    822.910278
3.508000    824.969830
3.509000    823.539288
3.510000    824.649092
3.511000    825.761396
3.512000    826.871216
3.513000    826.869375
3.514000    828.299765
3.515000    828.454710
3.516000    828.295767
3.517000    828.771128
3.518000    827.974588
3.519000    829.562365
3.520000    827.177374
3.521000    828.923294
3.522000    828.762705
3.523000    826.853662
3.524000    826.535959
3.525000    824.943996
3.526000    825.737942
3.527000    823.669958
3.528000    823.512518
3.529000    822.079044
3.530000    820.808943
3.531000    820.967077
3.532000    818.897467
3.533000    818.579752
3.534000    817.309637
3.535000    815.242680
3.536000    814.289352
3.537000    813.178026
3.538000    809.679766
3.539000    808.886675
3.540000    807.134947
3.541000    805.706610
3.542000    803.644255
3.543000    802.053141
3.544000    799.987696
3.545000    798.239763
3.546000    796.016983
3.547000    794.907007
3.548000    791.570482
3.549000    790.777910
3.550000    788.871552
3.551000    787.604620
3.552000    784.745377
3.553000    783.318846
3.554000    780.616909
3.555000    778.236216
3.556000    776.968271
3.557000    774.585735
3.558000    770.456434
3.559000    769.344961
3.560000    768.714632
3.561000    765.218967
3.562000    762.520227
3.563000    761.250971
3.564000    759.506035
3.565000    757.921682
3.566000    756.492506
3.567000    752.680935
3.568000    751.571457
3.569000    748.871338
3.570000    748.557261
3.571000    746.811657
3.572000    743.954443
3.573000    744.274176
3.574000    741.256994
3.575000    740.306452
3.576000    739.038366
3.577000    737.928877
3.578000    736.344225
3.579000    734.756245
3.580000    732.689770
3.581000    731.741577
3.582000    730.311705
3.583000    729.203878
3.584000    727.140396
3.585000    725.075891
3.586000    725.237829
3.587000    722.857265
3.588000    722.224472
3.589000    721.908230
3.590000    719.368721
3.591000    718.417025
3.592000    718.897676
3.593000    716.673925
3.594000    716.039480
3.595000    715.407492
3.596000    715.251362
3.597000    713.823969
3.598000    712.397074
3.599000    711.445385
3.600000    710.971884
3.601000    707.636663
3.602000    708.593470
3.603000    707.643606
3.604000    706.215235
3.605000    705.898991
3.606000    706.064556
3.607000    704.954405
3.608000    704.162634
3.609000    703.052845
3.610000    702.895700
3.611000    701.947319
3.612000    701.790701
3.613000    699.410151
3.614000    699.098715
3.615000    698.622530
3.616000    699.420567
3.617000    697.675312
3.618000    696.566967
3.619000    696.731209
3.620000    696.736328
3.621000    696.260475
3.622000    695.470375
3.623000    693.884735
3.624000    692.933704
3.625000    693.256870
3.626000    692.307663
3.627000    693.264503
3.628000    691.678974
3.629000    691.842220
3.630000    691.369205
3.631000    691.373314
3.632000    690.422451
3.633000    690.746307
3.634000    690.274117
3.635000    688.369736
3.636000    690.600269
3.637000    688.218689
3.638000    686.953266
3.639000    687.434574
3.640000    686.011147
3.641000    684.266552
3.642000    683.794514
3.643000    682.527252
3.644000    683.010685
3.645000    681.426369
3.646000    681.269405
3.647000    678.890167
3.648000    678.416142
3.649000    678.740147
3.650000    676.837444
3.651000    678.430195
3.652000    677.163918
3.653000    676.053452
3.654000    675.739002
3.655000    675.903099
3.656000    675.746136
3.657000    673.046684
3.658000    672.256573
3.659000    672.896355
3.660000    673.056934
3.661000    670.836155
3.662000    670.838303
3.663000    668.934265
3.664000    668.936234
3.665000    668.464025
3.666000    667.192125
3.667000    667.674585
3.668000    666.880682
3.669000    665.452482
3.670000    663.866346
3.671000    663.551584
3.672000    663.872129
3.673000    662.919458
3.674000    661.648691
3.675000    660.383732
3.676000    660.543339
3.677000    658.162302
3.678000    658.958021
3.679000    657.211756
3.680000    655.307884
3.681000    654.514473
3.682000    654.832853
3.683000    653.406828
3.684000    652.931456
3.685000    651.343163
3.686000    649.914978
3.687000    648.804819
3.688000    647.694353
3.689000    646.425093
3.690000    644.519224
3.691000    644.044559
3.692000    643.410730
3.693000    641.665480
3.694000    640.236776
3.695000    637.855089
3.696000    634.997038
3.697000    633.568163
3.698000    633.570810
3.699000    632.462332
3.700000    629.127760
3.701000    627.064278
3.702000    624.842348
3.703000    622.619087
3.704000    622.304012
3.705000    621.827646
3.706000    622.143896
3.707000    623.100393
3.708000    623.098738
3.709000    623.416456
3.710000    622.302666
3.711000    624.212843
3.712000    625.325945
3.713000    625.485083
3.714000    626.438410
3.715000    625.961252
3.716000    626.439070
3.717000    627.552038
3.718000    628.982531
3.719000    627.233797
3.720000    630.415867
3.721000    630.094496
3.722000    630.731773
3.723000    629.777765
3.724000    630.255093
3.725000    631.207283
3.726000    631.687424
3.727000    633.115644
3.728000    633.275236
3.729000    632.800547
3.730000    633.593645
3.731000    632.798061
3.732000    633.435514
3.733000    633.434505
3.734000    633.593311
3.735000    633.754885
3.736000    634.706402
3.737000    635.820856
3.738000    633.912006
3.739000    635.026627
3.740000    635.977810
3.741000    635.820534
3.742000    635.027134
3.743000    635.185902
3.744000    634.070963
3.745000    635.821039
3.746000    634.389357
3.747000    634.389677
3.748000    633.119118
3.749000    634.232069
3.750000    635.026453
3.751000    634.709885
3.752000    633.434677
3.753000    631.688095
3.754000    633.276396
3.755000    632.640453
3.756000    632.957352
3.757000    633.911345
3.758000    632.322071
3.759000    631.845377
3.760000    631.049185
3.761000    630.890049
3.762000    631.210270
3.763000    630.254780
3.764000    630.414358
3.765000    630.891859
3.766000    631.366245
3.767000    629.936527
3.768000    628.823589
3.769000    628.505859
3.770000    628.822937
3.771000    629.778582
3.772000    627.072699
3.773000    626.437576
3.774000    627.075195
3.775000    626.914257
3.776000    627.234787
3.777000    626.117704
3.778000    627.073019
3.779000    626.278950
3.780000    625.643673
3.781000    624.530891
3.782000    625.325462
3.783000    625.165670
3.784000    624.848104
3.785000    625.166515
3.786000    625.007055
3.787000    624.688179
3.788000    625.482912
3.789000    625.167500
3.790000    624.053562
3.791000    624.847446
3.792000    625.645325
3.793000    625.482750
3.794000    625.165337
3.795000    624.213993
3.796000    626.438751
3.797000    624.372101
3.798000    625.326281
3.799000    625.801781
3.800000    625.483742
3.801000    626.440712
3.802000    626.120173
3.803000    625.804598
3.804000    626.122320
3.805000    627.392750
3.806000    627.553507
3.807000    626.917393
3.808000    627.075169
3.809000    628.028532
3.810000    626.916727
3.811000    628.826221
3.812000    629.617832
3.813000    629.143627
3.814000    628.986492
3.815000    629.781061
3.816000    630.414040
3.817000    630.097645
3.818000    630.893019
3.819000    631.848354
3.820000    631.368690
3.821000    631.210077
3.822000    629.940018
3.823000    631.368544
3.824000    631.210106
3.825000    632.005308
3.826000    632.802040
3.827000    631.686937
3.828000    632.800367
3.829000    633.120926
3.830000    632.640759
3.831000    632.162941
3.832000    632.800049
3.833000    632.323214
3.834000    630.892876
3.835000    633.276558
3.836000    632.163101
3.837000    631.689245
3.838000    632.958649
3.839000    631.208752
3.840000    630.891880
3.841000    630.731770
3.842000    631.527319
3.843000    630.255407
3.844000    630.413374
3.845000    630.414028
3.846000    629.301908
3.847000    628.504864
3.848000    629.459354
3.849000    627.234112
3.850000    628.027695
3.851000    627.708982
3.852000    626.438065
3.853000    626.758120
3.854000    627.073851
3.855000    625.959087
3.856000    625.959419
3.857000    623.575058
3.858000    623.576050
3.859000    623.095400
3.860000    622.778517
3.861000    622.302671
3.862000    623.098225
3.863000    622.142738
3.864000    620.552427
3.865000    621.348658
3.866000    619.915323
3.867000    619.120594
3.868000    618.961979
3.869000    617.373861
3.870000    616.734928
3.871000    617.053291
3.872000    615.781570
3.873000    615.939034
3.874000    615.304752
3.875000    614.667646
3.876000    614.667128
3.877000    613.552183
3.878000    611.485054
3.879000    613.552691
3.880000    612.280289
3.881000    612.281616
3.882000    612.598846
3.883000    611.485897
3.884000    611.644341
3.885000    611.483927
3.886000    611.326307
3.887000    610.531559
3.888000    611.325314
3.889000    609.257664
3.890000    609.577543
3.891000    608.623047
3.892000    608.144711
3.893000    606.873001
3.894000    608.461454
3.895000    609.256531
3.896000    609.417793
3.897000    606.551630
3.898000    607.826336
3.899000    608.303675
3.900000    607.983784
3.901000    607.348522
3.902000    607.506283
3.903000    607.186403
3.904000    608.140930
3.905000    607.507624
3.906000    607.346188
3.907000    607.984962
3.908000    607.507278
3.909000    608.618576
3.910000    608.620560
3.911000    607.825184
3.912000    607.506298
3.913000    607.982965
3.914000    610.208378
3.915000    608.778700
3.916000    609.894304
3.917000    610.686525
3.918000    610.845486
3.919000    611.481598
3.920000    611.641869
3.921000    613.071388
3.922000    611.958921
3.923000    613.070889
3.924000    613.072868
3.925000    614.343941
3.926000    614.503387
3.927000    614.663816
3.928000    615.935068
3.929000    617.367407
3.930000    617.208128
3.931000    616.729122
3.932000    618.160971
3.933000    619.752087
3.934000    620.069485
3.935000    621.026449
3.936000    621.976498
3.937000    624.203558
3.938000    623.409817
3.939000    623.568781
3.940000    623.888319
3.941000    624.362846
3.942000    624.045265
3.943000    625.318157
3.944000    626.113403
3.945000    626.907646
3.946000    627.068388
3.947000    628.340458
3.948000    628.977066
3.949000    627.226856
3.950000    628.340630
3.951000    628.181337
3.952000    628.340612
3.953000    629.453579
3.954000    628.339966
3.955000    628.020733
3.956000    628.659029
3.957000    627.068905
3.958000    628.180344
3.959000    628.657686
3.960000    627.863953
3.961000    627.703367
3.962000    625.795004
3.963000    624.682711
3.964000    626.430634
3.965000    626.431124
3.966000    624.522434
3.967000    625.478447
3.968000    623.570255
3.969000    623.089607
3.970000    621.500977
3.971000    621.977821
3.972000    620.865374
3.973000    619.434357
3.974000    619.591658
3.975000    617.683468
3.976000    617.523706
3.977000    615.298100
3.978000    614.504541
3.979000    612.597191
3.980000    611.800150
3.981000    610.845135
3.982000    609.892645
3.983000    607.505289
3.984000    606.710056
3.985000    604.005507
3.986000    602.734104
3.987000    601.939707
3.988000    598.758785
3.989000    598.440567
3.990000    596.690681
3.991000    595.577242
3.992000    595.894619
3.993000    593.191216
3.994000    592.714397
3.995000    590.646606
3.996000    589.213114
3.997000    587.784733
3.998000    585.716963
3.999000    585.079681
